* Measurement data measured by REW V5.31.3
* Source: EXCL: Microphone (Umik-1  Gain: 18dB  ), MICROPHONE (Master Volume), R, volume: 0,800. Timing signal peak level -41,1 dBFS, measurement signal peak level -6,4 dBFS
* Format: 256k Log Swept Sine, 1 sweep at -15,0 dBFS using an acoustic timing reference
* Dated: 30.des.2024 13:36:25
* REW Settings:
*  C-weighting compensation: Off
*  Target level: 75.0 dB
* Note: ; LLP - Sub 1.5 Delay -3,3319 ms (-1,143 m, -(3 ft 9 in)) using IR start time relative to Acoustic reference played from SPEAKER R with no timing offset Clock adjustment: 5,7 ppm
* Measurement: LLP - Sub1.5
* Smoothing: None
* Frequency Step: 0.36621094 Hz
* Start Frequency: 1.0 Hz
*
* Freq(Hz) SPL(dB) Phase(degrees)
9.887695 72.079 67.9680
10.253906 72.697 47.2016
10.620117 72.608 28.5429
10.986328 72.012 12.6877
11.352539 70.932 1.0602
11.718750 69.580 -4.0080
12.084961 68.642 -0.9193
12.451172 68.969 6.1292
12.817383 70.297 10.0793
13.183594 71.853 10.2703
13.549805 73.444 9.0435
13.916016 75.244 6.9800
14.282227 77.309 2.6861
14.648438 79.434 -5.0168
15.014648 81.356 -15.9350
15.380859 82.908 -29.0955
15.747070 84.024 -43.4136
16.113281 84.688 -57.8902
16.479492 84.928 -71.5780
16.845703 84.816 -83.5354
17.211914 84.499 -92.9450
17.578125 84.220 -99.6100
17.944336 84.217 -104.6335
18.310547 84.527 -110.0888
18.676758 84.943 -117.4225
19.042969 85.204 -126.6667
19.409180 85.134 -136.9669
19.775391 84.652 -147.1593
20.141602 83.752 -155.9518
20.507812 82.525 -161.9737
20.874023 81.201 -164.1517
21.240234 80.121 -162.7575
21.606445 79.462 -159.8638
21.972656 79.042 -157.1300
22.338867 78.632 -153.7102
22.705078 78.389 -147.5570
23.071289 78.866 -139.3353
23.437500 80.213 -133.9141
23.803711 81.829 -134.2880
24.169922 83.157 -139.3256
24.536133 83.979 -146.8049
24.902344 84.264 -154.8108
25.268555 84.076 -161.7592
25.634766 83.571 -166.3542
26.000977 83.011 -167.9997
26.367188 82.668 -167.5225
26.733398 82.597 -166.8095
27.099609 82.600 -166.9137
27.465820 82.479 -167.1337
27.832031 82.249 -165.8899
28.198242 82.184 -162.3595
28.564453 82.594 -158.0208
28.930664 83.425 -155.6350
29.296875 84.324 -156.2884
29.663086 85.009 -159.0657
30.029297 85.394 -162.4449
30.395508 85.546 -165.1578
30.761719 85.622 -166.6090
31.127930 85.786 -167.1256
31.494141 86.095 -167.6953
31.860352 86.470 -169.1435
32.226562 86.776 -171.5788
32.592773 86.914 -174.5127
32.958984 86.848 -177.2045
33.325195 86.605 -178.8861
33.691406 86.273 -178.8955
34.057617 86.002 -176.8967
34.423828 85.980 -173.2672
34.790039 86.326 -169.2832
35.156250 86.986 -166.4726
35.522461 87.773 -165.6187
35.888672 88.505 -166.5390
36.254883 89.071 -168.5156
36.621094 89.445 -170.7126
36.987305 89.666 -172.4170
37.353516 89.820 -173.2094
37.719727 90.007 -173.0943
38.085938 90.297 -172.4679
38.452148 90.698 -171.8453
38.818359 91.174 -171.5435
39.184570 91.684 -171.5999
39.550781 92.207 -171.9149
39.916992 92.747 -172.4200
40.283203 93.306 -173.1329
40.649414 93.882 -174.1044
41.015625 94.466 -175.3489
41.381836 95.054 -176.8381
41.748047 95.650 -178.5614
42.114258 96.262 179.4135
42.480469 96.884 176.9474
42.846680 97.492 173.9146
43.212891 98.048 170.3034
43.579102 98.513 166.2657
43.945312 98.866 162.0944
44.311523 99.110 158.1488
44.677734 99.285 154.7417
45.043945 99.452 152.0001
45.410156 99.680 149.7521
45.776367 100.005 147.5565
46.142578 100.410 144.9234
46.508789 100.837 141.5749
46.875000 101.221 137.5415
47.241211 101.520 133.0744
47.607422 101.725 128.4887
47.973633 101.857 124.0220
48.339844 101.949 119.7449
48.706055 102.026 115.5526
49.072266 102.091 111.2522
49.438477 102.121 106.6994
49.804688 102.081 101.8963
50.170898 101.940 97.0017
50.537109 101.685 92.2730
50.903320 101.323 87.9826
51.269531 100.880 84.3426
51.635742 100.390 81.4584
52.001953 99.887 79.3292
52.368164 99.393 77.8958
52.734375 98.922 77.1059
53.100586 98.485 76.9512
53.466797 98.101 77.4518
53.833008 97.802 78.6006
54.199219 97.629 80.2858
54.565430 97.625 82.2178
54.931641 97.807 83.9154
55.297852 98.155 84.8230
55.664062 98.598 84.5231
56.030273 99.046 82.8917
56.396484 99.419 80.0986
56.762695 99.660 76.5012
57.128906 99.746 72.5266
57.495117 99.679 68.5805
57.861328 99.486 64.9805
58.227539 99.205 61.9120
58.593750 98.875 59.4146
58.959961 98.523 57.4188
59.326172 98.161 55.8235
59.692383 97.788 54.5716
60.058594 97.403 53.6730
60.424805 97.010 53.1692
60.791016 96.621 53.0750
61.157227 96.246 53.3519
61.523438 95.883 53.9418
61.889648 95.524 54.8403
62.255859 95.157 56.1520
62.622070 94.787 58.0818
62.988281 94.442 60.8572
63.354492 94.177 64.6092
63.720703 94.063 69.2657
64.086914 94.163 74.5109
64.453125 94.520 79.8245
64.819336 95.137 84.5756
65.185547 95.974 88.1537
65.551758 96.952 90.1280
65.917969 97.973 90.3563
66.284180 98.951 88.9777
66.650391 99.821 86.3141
67.016602 100.551 82.7597
67.382812 101.132 78.6976
67.749023 101.576 74.4465
68.115234 101.906 70.2285
68.481445 102.150 66.1556
68.847656 102.334 62.2408
69.213867 102.472 58.4375
69.580078 102.567 54.6947
69.946289 102.615 51.0018
70.312500 102.612 47.4027
70.678711 102.557 43.9769
71.044922 102.460 40.8029
71.411133 102.335 37.9230
71.777344 102.197 35.3285
72.143555 102.057 32.9705
72.509766 101.917 30.7899
72.875977 101.778 28.7462
73.242188 101.637 26.8280
73.608398 101.494 25.0436
73.974609 101.352 23.4008
74.340820 101.216 21.8919
74.707031 101.090 20.4910
75.073242 100.974 19.1632
75.439453 100.867 17.8785
75.805664 100.766 16.6212
76.171875 100.669 15.3915
76.538086 100.573 14.2008
76.904297 100.479 13.0633
77.270508 100.391 11.9869
77.636719 100.310 10.9667
78.002930 100.239 9.9831
78.369141 100.181 9.0067
78.735352 100.132 8.0077
79.101562 100.088 6.9679
79.467773 100.045 5.8884
79.833984 99.998 4.7916
80.200195 99.946 3.7136
80.566406 99.892 2.6912
80.932617 99.841 1.7465
81.298828 99.800 0.8763
81.665039 99.777 0.0504
82.031250 99.774 -0.7781
82.397461 99.790 -1.6564
82.763672 99.824 -2.6216
83.129883 99.871 -3.6978
83.496094 99.929 -4.9037
83.862305 99.994 -6.2593
84.228516 100.063 -7.7848
84.594727 100.129 -9.4927
84.960938 100.185 -11.3795
85.327148 100.227 -13.4251
85.693359 100.250 -15.6005
86.059570 100.254 -17.8802
86.425781 100.240 -20.2495
86.791992 100.205 -22.7029
87.158203 100.150 -25.2371
87.524414 100.073 -27.8452
87.890625 99.970 -30.5181
88.256836 99.840 -33.2496
88.623047 99.680 -36.0371
88.989258 99.482 -38.8708
89.355469 99.238 -41.7113
89.721680 98.938 -44.4694
90.087891 98.579 -47.0015
90.454102 98.170 -49.1326
90.820312 97.736 -50.7106
91.186523 97.317 -51.6796
91.552734 96.956 -52.1401
91.918945 96.682 -52.3472
92.285156 96.499 -52.6221
92.651367 96.384 -53.2300
93.017578 96.300 -54.3030
93.383789 96.214 -55.8419
93.750000 96.098 -57.7621
94.116211 95.936 -59.9386
94.482422 95.721 -62.2324
94.848633 95.454 -64.5046
95.214844 95.143 -66.6334
95.581055 94.808 -68.5377
95.947266 94.470 -70.2050
96.313477 94.149 -71.7058
96.679688 93.859 -73.1784
97.045898 93.599 -74.7838
97.412109 93.355 -76.6544
97.778320 93.110 -78.8641
98.144531 92.844 -81.4291
98.510742 92.543 -84.3284
98.876953 92.193 -87.5266
99.243164 91.786 -90.9883
99.609375 91.315 -94.6835
99.975586 90.772 -98.5862
100.341797 90.151 -102.6744
100.708008 89.447 -106.9335
101.074219 88.653 -111.3650
101.440430 87.764 -116.0005
101.806641 86.775 -120.9169
102.172852 85.674 -126.2513
102.539062 84.444 -132.2159
102.905273 83.061 -139.1221
103.271484 81.500 -147.4357
103.637695 79.753 -157.8851
104.003906 77.881 -171.5975
104.370117 76.128 170.0710
104.736328 75.036 147.1030
105.102539 75.094 123.3167
105.468750 76.074 103.6870
105.834961 77.390 89.4339
106.201172 78.693 79.2965
106.567383 79.867 71.8756
106.933594 80.898 66.2147
107.299805 81.798 61.7200
107.666016 82.582 58.0266
108.032227 83.267 54.9128
108.398438 83.863 52.2531
108.764648 84.382 49.9885
109.130859 84.837 48.1004
109.497070 85.243 46.5828
109.863281 85.617 45.4155
110.229492 85.978 44.5500
110.595703 86.338 43.9081
110.961914 86.706 43.3967
111.328125 87.085 42.9244
111.694336 87.473 42.4155
112.060547 87.864 41.8146
112.426758 88.252 41.0886
112.792969 88.630 40.2266
113.159180 88.991 39.2419
113.525391 89.329 38.1684
113.891602 89.644 37.0508
114.257812 89.939 35.9296
114.624023 90.219 34.8238
114.990234 90.490 33.7242
115.356445 90.756 32.5987
115.722656 91.013 31.4123
116.088867 91.257 30.1496
116.455078 91.480 28.8281
116.821289 91.679 27.4944
117.187500 91.854 26.2067
117.553711 92.010 25.0126
117.919922 92.157 23.9335
118.286133 92.300 22.9625
118.652344 92.447 22.0750
119.018555 92.598 21.2437
119.384766 92.756 20.4476
119.750977 92.920 19.6730
120.117188 93.091 18.9070
120.483398 93.270 18.1335
120.849609 93.457 17.3321
121.215820 93.652 16.4824
121.582031 93.852 15.5675
121.948242 94.055 14.5754
122.314453 94.257 13.5002
122.680664 94.457 12.3423
123.046875 94.650 11.1104
123.413086 94.835 9.8209
123.779297 95.012 8.4952
124.145508 95.180 7.1532
124.511719 95.344 5.8073
124.877930 95.506 4.4595
125.244141 95.668 3.1021
125.610352 95.834 1.7197
125.976562 96.004 0.2917
126.342773 96.178 -1.2070
126.708984 96.354 -2.8040
127.075195 96.531 -4.5240
127.441406 96.701 -6.3817
127.807617 96.858 -8.3756
128.173828 96.998 -10.4871
128.540039 97.115 -12.6843
128.906250 97.209 -14.9290
129.272461 97.278 -17.1833
129.638672 97.325 -19.4141
130.004883 97.353 -21.5950
130.371094 97.366 -23.7081
130.737305 97.368 -25.7464
131.103516 97.365 -27.7143
131.469727 97.359 -29.6263
131.835938 97.352 -31.5009
132.202148 97.346 -33.3551
132.568359 97.339 -35.2007
132.934570 97.332 -37.0473
133.300781 97.326 -38.9073
133.666992 97.320 -40.8000
134.033203 97.314 -42.7484
134.399414 97.304 -44.7709
134.765625 97.285 -46.8741
135.131836 97.252 -49.0494
135.498047 97.203 -51.2780
135.864258 97.137 -53.5394
136.230469 97.052 -55.8185
136.596680 96.949 -58.1064
136.962891 96.826 -60.3970
137.329102 96.682 -62.6794
137.695312 96.515 -64.9348
138.061523 96.324 -67.1366
138.427734 96.108 -69.2546
138.793945 95.870 -71.2603
139.160156 95.612 -73.1296
139.526367 95.338 -74.8441
139.892578 95.050 -76.3901
140.258789 94.753 -77.7582
140.625000 94.449 -78.9415
140.991211 94.142 -79.9359
141.357422 93.836 -80.7397
141.723633 93.534 -81.3544
142.089844 93.240 -81.7841
142.456055 92.956 -82.0367
142.822266 92.686 -82.1222
143.188477 92.433 -82.0500
143.554688 92.198 -81.8275
143.920898 91.986 -81.4597
144.287109 91.799 -80.9551
144.653320 91.644 -80.3317
145.019531 91.525 -79.6220
145.385742 91.446 -78.8704
145.751953 91.408 -78.1257
146.118164 91.411 -77.4330
146.484375 91.454 -76.8350
146.850586 91.538 -76.3783
147.216797 91.660 -76.1196
147.583008 91.815 -76.1230
147.949219 91.996 -76.4458
148.315430 92.189 -77.1231
148.681641 92.383 -78.1600
149.047852 92.567 -79.5367
149.414062 92.733 -81.2217
149.780273 92.876 -83.1833
150.146484 92.991 -85.3948
150.512695 93.074 -87.8338
150.878906 93.120 -90.4769
151.245117 93.124 -93.2961
151.611328 93.083 -96.2581
151.977539 92.990 -99.3219
152.343750 92.843 -102.4390
152.709961 92.640 -105.5522
153.076172 92.380 -108.5999
153.442383 92.065 -111.5247
153.808594 91.701 -114.2839
154.174805 91.290 -116.8535
154.541016 90.834 -119.2194
154.907227 90.332 -121.3576
155.273438 89.779 -123.2173
155.639648 89.176 -124.7217
156.005859 88.527 -125.7867
156.372070 87.838 -126.3425
156.738281 87.112 -126.3225
157.104492 86.352 -125.6147
157.470703 85.564 -124.0144
157.836914 84.781 -121.2594
158.203125 84.069 -117.1960
158.569336 83.503 -111.9651
158.935547 83.123 -105.9246
159.301758 82.931 -99.2559
159.667969 82.969 -91.8264
160.034180 83.375 -83.8564
160.400391 84.269 -76.7395
160.766602 85.549 -72.3699
161.132812 86.937 -71.5615
161.499023 88.188 -73.8342
161.865234 89.174 -78.1923
162.231445 89.853 -83.6559
162.597656 90.243 -89.4224
162.963867 90.392 -94.8905
163.330078 90.368 -99.6785
163.696289 90.246 -103.6503
164.062500 90.092 -106.9064
164.428711 89.943 -109.6926
164.794922 89.805 -112.2528
165.161133 89.667 -114.7237
165.527344 89.519 -117.1353
165.893555 89.357 -119.4813
166.259766 89.182 -121.7783
166.625977 88.992 -124.0647
166.992188 88.775 -126.3545
167.358398 88.519 -128.5967
167.724609 88.219 -130.6804
168.090820 87.883 -132.4827
168.457031 87.527 -133.9285
168.823242 87.171 -135.0190
169.189453 86.827 -135.8126
169.555664 86.500 -136.3704
169.921875 86.191 -136.7190
170.288086 85.904 -136.8545
170.654297 85.649 -136.7874
171.020508 85.439 -136.5809
171.386719 85.282 -136.3562
171.752930 85.174 -136.2534
172.119141 85.103 -136.3842
172.485352 85.050 -136.8091
172.851562 85.000 -137.5437
173.217773 84.935 -138.5750
173.583984 84.840 -139.8666
173.950195 84.698 -141.3503
174.316406 84.495 -142.9094
174.682617 84.222 -144.3726
175.048828 83.884 -145.5304
175.415039 83.501 -146.1787
175.781250 83.110 -146.1880
176.147461 82.754 -145.5708
176.513672 82.474 -144.5050
176.879883 82.284 -143.2681
177.246094 82.174 -142.1145
177.612305 82.122 -141.1853
177.978516 82.104 -140.5071
178.344727 82.107 -140.0510
178.710938 82.125 -139.7922
179.077148 82.153 -139.7263
179.443359 82.186 -139.8556
179.809570 82.217 -140.1663
180.175781 82.239 -140.6255
180.541992 82.251 -141.1945
180.908203 82.253 -141.8428
181.274414 82.245 -142.5525
181.640625 82.227 -143.3093
182.006836 82.199 -144.0947
182.373047 82.162 -144.8848
182.739258 82.119 -145.6604
183.105469 82.073 -146.4165
183.471680 82.028 -147.1616
183.837891 81.984 -147.9094
184.204102 81.943 -148.6689
184.570312 81.903 -149.4425
184.936523 81.866 -150.2334
185.302734 81.833 -151.0537
185.668945 81.803 -151.9255
186.035156 81.774 -152.8699
186.401367 81.740 -153.8933
186.767578 81.695 -154.9797
187.133789 81.637 -156.0911
187.500000 81.564 -157.1798
187.866211 81.481 -158.2031
188.232422 81.394 -159.1345
188.598633 81.309 -159.9678
188.964844 81.235 -160.7161
189.331055 81.177 -161.4069
189.697266 81.139 -162.0787
190.063477 81.126 -162.7812
190.429688 81.137 -163.5762
190.795898 81.171 -164.5344
191.162109 81.220 -165.7219
191.528320 81.271 -167.1801
191.894531 81.310 -168.9082
192.260742 81.325 -170.8633
192.626953 81.309 -172.9750
192.993164 81.261 -175.1720
193.359375 81.185 -177.4075
193.725586 81.085 -179.6666
194.091797 80.962 178.0435
194.458008 80.813 175.7200
194.824219 80.632 173.3860
195.190430 80.416 171.0950
195.556641 80.165 168.9155
195.922852 79.886 166.9077
196.289062 79.587 165.1030
196.655273 79.275 163.5044
197.021484 78.957 162.1033
197.387695 78.634 160.8987
197.753906 78.309 159.9069
198.120117 77.987 159.1493
198.486328 77.680 158.6313
198.852539 77.396 158.3259
199.218750 77.144 158.1761
199.584961 76.926 158.1132
199.951172 76.742 158.0781
200.317383 76.589 158.0297
200.683594 76.464 157.9384
201.049805 76.367 157.7739
201.416016 76.296 157.4994
201.782227 76.247 157.0768
202.148438 76.215 156.4745
202.514648 76.193 155.6738
202.880859 76.175 154.6646
203.247070 76.155 153.4407
203.613281 76.125 151.9982
203.979492 76.078 150.3452
204.345703 76.001 148.5168
204.711914 75.888 146.5829
205.078125 75.734 144.6406
205.444336 75.543 142.7908
205.810547 75.327 141.1077
206.176758 75.099 139.6191
206.542969 74.871 138.3113
206.909180 74.652 137.1499
207.275391 74.445 136.1018
207.641602 74.256 135.1335
208.007812 74.091 134.1914
208.374023 73.949 133.1943
208.740234 73.825 132.0581
209.106445 73.704 130.7438
209.472656 73.570 129.2859
209.838867 73.420 127.7688
210.205078 73.259 126.2610
210.571289 73.101 124.7542
210.937500 72.949 123.1584
211.303711 72.794 121.3733
211.669922 72.615 119.3768
212.036133 72.392 117.2639
212.402344 72.122 115.1987
212.768555 71.818 113.3116
213.134766 71.504 111.6094
213.500977 71.195 109.9678
213.867188 70.882 108.2297
214.233398 70.534 106.3408
214.599609 70.123 104.4167
214.965820 69.636 102.6987
215.332031 69.086 101.4397
215.698242 68.506 100.7856
216.064453 67.930 100.7297
216.430664 67.378 101.1736
216.796875 66.853 102.0542
217.163086 66.363 103.4031
217.529297 65.932 105.2656
217.895508 65.599 107.5435
218.261719 65.392 109.9255
218.627930 65.302 112.0212
218.994141 65.282 113.5856
219.360352 65.285 114.6165
219.726562 65.280 115.2728
220.092773 65.260 115.7335
220.458984 65.233 116.1057
220.825195 65.209 116.4186
221.191406 65.193 116.6648
221.557617 65.188 116.8367
221.923828 65.194 116.9302
222.290039 65.214 116.9274
222.656250 65.248 116.7939
223.022461 65.293 116.4999
223.388672 65.340 116.0443
223.754883 65.386 115.4543
224.121094 65.433 114.7554
224.487305 65.484 113.9355
224.853516 65.541 112.9407
225.219727 65.593 111.7106
225.585938 65.624 110.2361
225.952148 65.618 108.5916
226.318359 65.569 106.9131
226.684570 65.488 105.3320
227.050781 65.399 103.8921
227.416992 65.323 102.5006
227.783203 65.268 100.9586
228.149414 65.216 99.0662
228.515625 65.131 96.7314
228.881836 64.974 94.0171
229.248047 64.715 91.1105
229.614258 64.343 88.2598
229.980469 63.861 85.7122
230.346680 63.286 83.6742
230.712891 62.639 82.2974
231.079102 61.949 81.6829
231.445312 61.242 81.8926
231.811523 60.548 82.9514
232.177734 59.898 84.8376
232.543945 59.321 87.4817
232.910156 58.842 90.7799
233.276367 58.488 94.6039
233.642578 58.286 98.7676
234.008789 58.258 102.9652
234.375000 58.406 106.7676
234.741211 58.691 109.7527
235.107422 59.047 111.6833
235.473633 59.398 112.5898
235.839844 59.688 112.7222
236.206055 59.888 112.4414
236.572266 60.000 112.1123
236.938477 60.048 112.0181
237.304688 60.068 112.3049
237.670898 60.097 112.9813
238.037109 60.159 113.9775
238.403320 60.271 115.2247
238.769531 60.453 116.6694
239.135742 60.733 118.1873
239.501953 61.136 119.4888
239.868164 61.655 120.1544
240.234375 62.245 119.8241
240.600586 62.838 118.3745
240.966797 63.373 115.9298
241.333008 63.812 112.7495
241.699219 64.145 109.0962
242.065430 64.374 105.1586
242.431641 64.506 101.0386
242.797852 64.539 96.7992
243.164062 64.467 92.5278
243.530273 64.283 88.3771
243.896484 63.991 84.5527
244.262695 63.610 81.2518
244.628906 63.175 78.5776
244.995117 62.718 76.4912
245.361328 62.256 74.8508
245.727539 61.780 73.5430
246.093750 61.268 72.6084
246.459961 60.710 72.2704
246.826172 60.128 72.8379
247.192383 59.580 74.5222
247.558594 59.148 77.2581
247.924805 58.895 80.6426
248.291016 58.840 84.0859
248.657227 58.948 87.0776
249.023438 59.155 89.3612
249.389648 59.399 90.9514
249.755859 59.641 92.0415
250.122070 59.870 92.8723
250.488281 60.100 93.6121
250.854492 60.352 94.2803
251.220703 60.639 94.7766
251.586914 60.955 94.9924
251.953125 61.285 94.9048
252.319336 61.623 94.5686
252.685547 61.976 94.0217
253.051758 62.356 93.2037
253.417969 62.760 91.9716
253.784180 63.169 90.2051
254.150391 63.550 87.9060
254.516602 63.880 85.2108
254.882812 64.150 82.3188
255.249023 64.371 79.3979
255.615234 64.565 76.5210
255.981445 64.747 73.6633
256.347656 64.922 70.7576
256.713867 65.086 67.7614
257.080078 65.230 64.6934
257.446289 65.350 61.6190
257.812500 65.452 58.6064
258.178711 65.548 55.6846
258.544922 65.651 52.8223
258.911133 65.767 49.9386
259.277344 65.896 46.9335
259.643555 66.030 43.7234
260.009766 66.154 40.2688
260.375977 66.255 36.5770
260.742188 66.326 32.6864
261.108398 66.361 28.6407
261.474609 66.361 24.4690
261.840820 66.325 20.1823
262.207031 66.249 15.7935
262.573242 66.128 11.3409
262.939453 65.959 6.9026
263.305664 65.746 2.5796
263.671875 65.503 -1.5422
264.038086 65.246 -5.4292
264.404297 64.993 -9.1072
264.770508 64.751 -12.6276
265.136719 64.521 -16.0151
265.502930 64.308 -19.2484
265.869141 64.124 -22.3011
266.235352 63.987 -25.2192
266.601562 63.914 -28.1664
266.967773 63.897 -31.3705
267.333984 63.906 -34.9991
267.700195 63.900 -39.0579
268.066406 63.848 -43.3865
268.432617 63.740 -47.7434
268.798828 63.593 -51.9229
269.165039 63.438 -55.8560
269.531250 63.306 -59.6443
269.897461 63.204 -63.4905
270.263672 63.117 -67.5630
270.629883 63.018 -71.8918
270.996094 62.888 -76.3593
271.362305 62.726 -80.7822
271.728516 62.557 -85.0338
272.094727 62.412 -89.1360
272.460938 62.312 -93.2614
272.827148 62.250 -97.6261
273.193359 62.196 -102.3402
273.559570 62.115 -107.3324
273.925781 61.992 -112.3949
274.291992 61.835 -117.3073
274.658203 61.673 -121.9746
275.024414 61.534 -126.4939
275.390625 61.422 -131.0924
275.756836 61.310 -135.9628
276.123047 61.151 -141.1185
276.489258 60.909 -146.3710
276.855469 60.571 -151.4175
277.221680 60.155 -155.9714
277.587891 59.696 -159.8700
277.954102 59.237 -163.1158
278.320312 58.807 -165.8243
278.686523 58.425 -168.1389
279.052734 58.102 -170.2018
279.418945 57.850 -172.2100
279.785156 57.661 -174.4397
280.151367 57.497 -177.1304
280.517578 57.292 179.7068
280.883789 56.989 176.3929
281.250000 56.574 173.5010
281.616211 56.103 171.5989
281.982422 55.694 170.8512
282.348633 55.454 170.7075
282.714844 55.385 170.1674
283.081055 55.361 168.5760
283.447266 55.221 166.1047
283.813477 54.858 163.6156
284.179688 54.264 162.3381
284.545898 53.566 163.4999
284.912109 53.036 167.6230
285.278320 52.976 173.5719
285.644531 53.450 178.9464
286.010742 54.246 -177.8811
286.376953 55.130 -177.0045
286.743164 55.980 -177.8689
287.109375 56.760 -179.9940
287.475586 57.461 176.8693
287.841797 58.069 172.8536
288.208008 58.563 168.1057
288.574219 58.929 162.8317
288.940430 59.163 157.2734
289.306641 59.276 151.6381
289.672852 59.289 146.0411
290.039062 59.221 140.4879
290.405273 59.074 134.9164
290.771484 58.835 129.2876
291.137695 58.478 123.6697
291.503906 57.981 118.2687
291.870117 57.340 113.3864
292.236328 56.575 109.3256
292.602539 55.726 106.2720
292.968750 54.833 104.2222
293.334961 53.911 103.0475
293.701172 52.934 102.7292
294.067383 51.867 103.6317
294.433594 50.721 106.6210
294.799805 49.653 112.7992
295.166016 49.024 122.3522
295.532227 49.188 132.9552
295.898438 50.059 141.0189
296.264648 51.218 145.0237
296.630859 52.333 145.6244
296.997070 53.267 144.0304
297.363281 54.001 141.2333
297.729492 54.574 137.8541
298.095703 55.039 134.1461
298.461914 55.431 130.0662
298.828125 55.752 125.4573
299.194336 55.967 120.2588
299.560547 56.034 114.6343
299.926758 55.929 108.9474
