* Measurement data measured by REW V5.31.3
* Source: EXCL: Microphone (Umik-1  Gain: 18dB  ), MICROPHONE (Master Volume), R, volume: 0,800. Timing signal peak level -36,9 dBFS, measurement signal peak level -7,0 dBFS
* Format: 256k Log Swept Sine, 1 sweep at -15,0 dBFS using an acoustic timing reference
* Dated: 30.des.2024 13:39:33
* REW Settings:
*  C-weighting compensation: Off
*  Target level: 75.0 dB
* Note: ; MLP - Sub 1S Delay 7,3331 ms (2,515 m, 8 ft 3 in) using IR start time relative to Acoustic reference played from SPEAKER R with no timing offset Clock adjustment: 5,2 ppm
* Measurement: MLP - Sub1S
* Smoothing: None
* Frequency Step: 0.36621094 Hz
* Start Frequency: 1.0 Hz
*
* Freq(Hz) SPL(dB) Phase(degrees)
9.887695 86.500 -16.9244
10.253906 86.600 -40.8314
10.620117 86.014 -62.2174
10.986328 84.974 -80.3582
11.352539 83.539 -94.0571
11.718750 81.914 -101.5825
12.084961 80.633 -101.7269
12.451172 80.429 -97.1786
12.817383 81.344 -94.1574
13.183594 82.741 -95.4079
13.549805 84.183 -99.9263
13.916016 85.559 -106.3781
14.282227 86.877 -114.1578
14.648438 88.144 -123.2122
15.014648 89.323 -133.6488
15.380859 90.344 -145.4440
15.747070 91.134 -158.3431
16.113281 91.630 -171.8906
16.479492 91.793 174.5188
16.845703 91.613 161.6220
17.211914 91.118 150.2841
17.578125 90.413 141.4109
17.944336 89.703 135.5594
18.310547 89.259 132.1660
18.676758 89.213 129.3179
19.042969 89.427 125.1596
19.409180 89.635 119.2769
19.775391 89.646 112.4595
20.141602 89.396 105.9514
20.507812 88.948 101.0036
20.874023 88.489 98.4493
21.240234 88.288 97.9833
21.606445 88.504 97.8608
21.972656 89.027 96.1829
22.338867 89.602 92.3725
22.705078 90.039 87.0438
23.071289 90.266 81.2008
23.437500 90.311 75.7318
23.803711 90.266 71.1537
24.169922 90.238 67.4668
24.536133 90.295 64.2205
24.902344 90.431 60.8652
25.268555 90.592 57.1213
25.634766 90.720 53.0533
26.000977 90.790 48.9051
26.367188 90.801 44.9241
26.733398 90.771 41.2867
27.099609 90.725 38.0922
27.465820 90.695 35.3523
27.832031 90.710 32.9525
28.198242 90.783 30.6637
28.564453 90.896 28.2727
28.930664 91.016 25.7501
29.296875 91.124 23.2755
29.663086 91.241 21.0566
30.029297 91.416 19.0625
30.395508 91.678 16.9320
30.761719 91.997 14.2227
31.127930 92.298 10.7872
31.494141 92.510 6.9000
31.860352 92.617 3.0718
32.226562 92.660 -0.2668
32.592773 92.716 -3.0385
32.958984 92.838 -5.5659
33.325195 93.021 -8.2963
33.691406 93.212 -11.4377
34.057617 93.363 -14.8601
34.423828 93.462 -18.2816
34.790039 93.529 -21.5117
35.156250 93.593 -24.5582
35.522461 93.659 -27.5394
35.888672 93.716 -30.5084
36.254883 93.751 -33.3746
36.621094 93.771 -35.9891
36.987305 93.804 -38.2970
37.353516 93.873 -40.4005
37.719727 93.982 -42.4687
38.085938 94.114 -44.5906
38.452148 94.257 -46.7318
38.818359 94.414 -48.8246
39.184570 94.596 -50.8748
39.550781 94.810 -52.9683
39.916992 95.048 -55.1831
40.283203 95.300 -57.5259
40.649414 95.565 -59.9713
41.015625 95.846 -62.5458
41.381836 96.141 -65.3356
41.748047 96.427 -68.3827
42.114258 96.682 -71.5787
42.480469 96.905 -74.6917
42.846680 97.129 -77.5449
43.212891 97.403 -80.2255
43.579102 97.750 -83.1017
43.945312 98.132 -86.5500
44.311523 98.477 -90.6215
44.677734 98.724 -94.9537
45.043945 98.874 -98.9600
45.410156 98.996 -102.1658
45.776367 99.205 -104.5671
46.142578 99.584 -106.7450
46.508789 100.129 -109.4929
46.875000 100.760 -113.2701
47.241211 101.400 -118.0624
47.607422 102.010 -123.6465
47.973633 102.589 -129.8843
48.339844 103.141 -136.8221
48.706055 103.645 -144.5962
49.072266 104.058 -153.2650
49.438477 104.328 -162.7117
49.804688 104.414 -172.6521
50.170898 104.296 177.2994
50.537109 103.979 167.5546
50.903320 103.492 158.4820
51.269531 102.885 150.3375
51.635742 102.217 143.2059
52.001953 101.543 136.9866
52.368164 100.897 131.4552
52.734375 100.290 126.3766
53.100586 99.719 121.5856
53.466797 99.181 116.9800
53.833008 98.674 112.4618
54.199219 98.194 107.8995
54.565430 97.725 103.1548
54.931641 97.237 98.1499
55.297852 96.696 92.9207
55.664062 96.068 87.6285
56.030273 95.338 82.5367
56.396484 94.506 77.9689
56.762695 93.599 74.2490
57.128906 92.671 71.6066
57.495117 91.793 70.0585
57.861328 91.031 69.3376
58.227539 90.412 68.9856
58.593750 89.917 68.5909
58.959961 89.506 67.9673
59.326172 89.150 67.1269
59.692383 88.840 66.1190
60.058594 88.581 64.9042
60.424805 88.366 63.3621
60.791016 88.172 61.4014
61.157227 87.973 59.0527
61.523438 87.753 56.4530
61.889648 87.521 53.7350
62.255859 87.299 50.8981
62.622070 87.103 47.7642
62.988281 86.915 44.0757
63.354492 86.690 39.6785
63.720703 86.370 34.6495
64.086914 85.911 29.2933
64.453125 85.302 24.0358
64.819336 84.572 19.2617
65.185547 83.780 15.1387
65.551758 82.978 11.5150
65.917969 82.177 8.0291
66.284180 81.331 4.4233
66.650391 80.365 0.8187
67.016602 79.230 -2.2526
67.382812 77.939 -4.0344
67.749023 76.580 -3.8672
68.115234 75.292 -1.5213
68.481445 74.204 2.7518
68.847656 73.410 8.5527
69.213867 73.028 15.3429
69.580078 73.165 21.8046
69.946289 73.749 26.0516
70.312500 74.521 27.0875
70.678711 75.233 25.2862
71.044922 75.764 21.6235
71.411133 76.101 16.9890
71.777344 76.282 11.9301
72.143555 76.353 6.6576
72.509766 76.341 1.1941
72.875977 76.249 -4.4366
73.242188 76.076 -10.1042
73.608398 75.835 -15.6043
73.974609 75.565 -20.7882
74.340820 75.311 -25.6815
74.707031 75.104 -30.4860
75.073242 74.944 -35.4435
75.439453 74.811 -40.6785
75.805664 74.681 -46.1602
76.171875 74.544 -51.7876
76.538086 74.400 -57.4897
76.904297 74.243 -63.2432
77.270508 74.054 -68.9930
77.636719 73.809 -74.5576
78.002930 73.499 -79.6079
78.369141 73.147 -83.7699
78.735352 72.810 -86.8206
79.101562 72.553 -88.8578
79.467773 72.401 -90.2338
79.833984 72.321 -91.2020
80.200195 72.264 -91.5932
80.566406 72.237 -90.8718
80.932617 72.347 -88.6191
81.298828 72.752 -85.1783
81.665039 73.532 -81.7522
82.031250 74.609 -79.5378
82.397461 75.829 -78.9468
82.763672 77.081 -79.7610
83.129883 78.317 -81.6331
83.496094 79.522 -84.3353
83.862305 80.683 -87.7448
84.228516 81.787 -91.7473
84.594727 82.823 -96.1891
84.960938 83.792 -100.9062
85.327148 84.707 -105.7841
85.693359 85.584 -110.7946
86.059570 86.431 -115.9827
86.425781 87.249 -121.4135
86.791992 88.028 -127.1198
87.158203 88.758 -133.0854
87.524414 89.432 -139.2626
87.890625 90.047 -145.6013
88.256836 90.602 -152.0657
88.623047 91.095 -158.6265
88.989258 91.520 -165.2417
89.355469 91.875 -171.8403
89.721680 92.159 -178.3248
90.087891 92.381 175.4054
90.454102 92.555 169.4226
90.820312 92.701 163.7449
91.186523 92.834 158.3311
91.552734 92.965 153.1013
91.918945 93.097 147.9679
92.285156 93.229 142.8595
92.651367 93.353 137.7261
93.017578 93.464 132.5330
93.383789 93.554 127.2581
93.750000 93.611 121.9009
94.116211 93.623 116.4976
94.482422 93.582 111.1277
94.848633 93.485 105.9052
95.214844 93.336 100.9504
95.581055 93.152 96.3555
95.947266 92.953 92.1516
96.313477 92.757 88.3000
96.679688 92.577 84.7104
97.045898 92.416 81.2823
97.412109 92.267 77.9453
97.778320 92.122 74.6768
98.144531 91.977 71.4930
98.510742 91.831 68.4231
98.876953 91.688 65.4856
99.243164 91.553 62.6765
99.609375 91.429 59.9731
99.975586 91.319 57.3467
100.341797 91.221 54.7734
100.708008 91.135 52.2382
101.074219 91.061 49.7294
101.440430 90.999 47.2311
101.806641 90.950 44.7212
102.172852 90.912 42.1763
102.539062 90.881 39.5796
102.905273 90.855 36.9265
103.271484 90.832 34.2202
103.637695 90.811 31.4619
104.003906 90.793 28.6433
104.370117 90.776 25.7451
104.736328 90.758 22.7467
105.102539 90.734 19.6390
105.468750 90.698 16.4330
105.834961 90.647 13.1554
106.201172 90.580 9.8376
106.567383 90.501 6.4995
106.933594 90.413 3.1407
107.299805 90.317 -0.2578
107.666016 90.215 -3.7231
108.032227 90.102 -7.2782
108.398438 89.974 -10.9369
108.764648 89.828 -14.7062
109.130859 89.659 -18.5903
109.497070 89.461 -22.5903
109.863281 89.226 -26.6964
110.229492 88.945 -30.8773
110.595703 88.611 -35.0754
110.961914 88.221 -39.2107
111.328125 87.775 -43.1947
111.694336 87.280 -46.9486
112.060547 86.748 -50.4200
112.426758 86.192 -53.5973
112.792969 85.624 -56.5160
113.159180 85.052 -59.2590
113.525391 84.476 -61.9397
113.891602 83.883 -64.6659
114.257812 83.247 -67.4907
114.624023 82.539 -70.3704
114.990234 81.733 -73.1519
115.356445 80.815 -75.5983
115.722656 79.790 -77.4530
116.088867 78.681 -78.5304
116.455078 77.514 -78.7972
116.821289 76.298 -78.3793
117.187500 74.993 -77.4269
117.553711 73.505 -75.8433
117.919922 71.681 -72.8915
118.286133 69.344 -66.4152
118.652344 66.534 -50.8635
119.018555 64.940 -18.6732
119.384766 67.111 13.0608
119.750977 70.468 27.3842
120.117188 73.319 31.8489
120.483398 75.596 31.9506
120.849609 77.435 29.8899
121.215820 78.946 26.6083
121.582031 80.199 22.5619
121.948242 81.241 18.0044
122.314453 82.101 13.1053
122.680664 82.800 8.0015
123.046875 83.352 2.8160
123.413086 83.773 -2.3383
123.779297 84.080 -7.3660
124.145508 84.290 -12.2001
124.511719 84.418 -16.8092
124.877930 84.480 -21.1996
125.244141 84.482 -25.4032
125.610352 84.425 -29.4528
125.976562 84.301 -33.3494
126.342773 84.099 -37.0330
126.708984 83.809 -40.3674
127.075195 83.429 -43.1437
127.441406 82.975 -45.1058
127.807617 82.482 -46.0009
128.173828 82.009 -45.6600
128.540039 81.634 -44.1055
128.906250 81.431 -41.6377
129.272461 81.448 -38.8162
129.638672 81.677 -36.2816
130.004883 82.066 -34.5187
130.371094 82.541 -33.7238
130.737305 83.037 -33.8330
131.103516 83.515 -34.6361
131.469727 83.963 -35.8961
131.835938 84.388 -37.4431
132.202148 84.807 -39.2239
132.568359 85.233 -41.2999
132.934570 85.664 -43.7922
133.300781 86.085 -46.8029
133.666992 86.468 -50.3584
134.033203 86.790 -54.3967
134.399414 87.032 -58.7921
134.765625 87.186 -63.3920
135.131836 87.252 -68.0507
135.498047 87.237 -72.6512
135.864258 87.151 -77.1140
136.230469 87.007 -81.3960
136.596680 86.812 -85.4822
136.962891 86.573 -89.3765
137.329102 86.293 -93.0906
137.695312 85.974 -96.6351
138.061523 85.612 -100.0125
138.427734 85.203 -103.2087
138.793945 84.741 -106.1925
139.160156 84.223 -108.9148
139.526367 83.643 -111.3136
139.892578 82.994 -113.3113
140.258789 82.269 -114.7970
140.625000 81.457 -115.5894
140.991211 80.551 -115.3870
141.357422 79.563 -113.7251
141.723633 78.550 -109.9979
142.089844 77.649 -103.6649
142.456055 77.084 -94.7896
142.822266 77.068 -84.6272
143.188477 77.629 -75.2262
143.554688 78.589 -68.0667
143.920898 79.732 -63.4827
144.287109 80.909 -61.1420
144.653320 82.039 -60.5627
145.019531 83.088 -61.3180
145.385742 84.040 -63.0691
145.751953 84.895 -65.5553
146.118164 85.655 -68.5793
146.484375 86.330 -71.9987
146.850586 86.927 -75.7196
147.216797 87.456 -79.6912
147.583008 87.921 -83.8949
147.949219 88.322 -88.3276
148.315430 88.655 -92.9821
148.681641 88.912 -97.8285
149.047852 89.084 -102.8082
149.414062 89.164 -107.8350
149.780273 89.147 -112.8048
150.146484 89.031 -117.6038
150.512695 88.816 -122.1089
150.878906 88.504 -126.1788
151.245117 88.101 -129.6411
151.611328 87.620 -132.2844
151.977539 87.088 -133.8732
152.343750 86.555 -134.1968
152.709961 86.090 -133.1599
153.076172 85.780 -130.8928
153.442383 85.703 -127.8247
153.808594 85.898 -124.6365
154.174805 86.352 -122.0767
154.541016 86.997 -120.7310
154.907227 87.742 -120.8882
155.273438 88.500 -122.5493
155.639648 89.201 -125.5249
156.005859 89.800 -129.5409
156.372070 90.272 -134.3143
156.738281 90.604 -139.5898
157.104492 90.788 -145.1445
157.470703 90.821 -150.7721
157.836914 90.700 -156.2561
158.203125 90.425 -161.3427
158.569336 90.004 -165.7253
158.935547 89.465 -169.0551
159.301758 88.862 -170.9977
159.667969 88.282 -171.3641
160.034180 87.829 -170.2866
160.400391 87.590 -168.3040
160.766602 87.585 -166.1793
161.132812 87.769 -164.5360
161.499023 88.069 -163.6461
161.865234 88.426 -163.4971
162.231445 88.805 -163.9658
162.597656 89.191 -164.9418
162.963867 89.574 -166.3604
163.330078 89.946 -168.1840
163.696289 90.298 -170.3719
164.062500 90.619 -172.8632
164.428711 90.903 -175.5779
164.794922 91.148 -178.4280
165.161133 91.356 178.6667
165.527344 91.534 175.7697
165.893555 91.688 172.9191
166.259766 91.829 170.1288
166.625977 91.961 167.3921
166.992188 92.090 164.6907
167.358398 92.219 162.0051
167.724609 92.347 159.3219
168.090820 92.476 156.6327
168.457031 92.607 153.9299
168.823242 92.742 151.2004
169.189453 92.882 148.4242
169.555664 93.027 145.5793
169.921875 93.175 142.6471
170.288086 93.325 139.6154
170.654297 93.475 136.4751
171.020508 93.626 133.2156
171.386719 93.777 129.8195
171.752930 93.927 126.2599
172.119141 94.074 122.4982
172.485352 94.215 118.4821
172.851562 94.342 114.1509
173.217773 94.438 109.4503
173.583984 94.483 104.3585
173.950195 94.448 98.9141
174.316406 94.308 93.2351
174.682617 94.038 87.5228
175.048828 93.627 82.0522
175.415039 93.078 77.1492
175.781250 92.413 73.1547
176.147461 91.678 70.3663
176.513672 90.938 68.9603
176.879883 90.274 68.9081
177.246094 89.755 69.9425
177.612305 89.428 71.6172
177.978516 89.302 73.4332
178.344727 89.358 74.9558
178.710938 89.558 75.8696
179.077148 89.856 75.9930
179.443359 90.205 75.2688
179.809570 90.565 73.7396
180.175781 90.907 71.5103
180.541992 91.210 68.7108
180.908203 91.462 65.4730
181.274414 91.657 61.9176
181.640625 91.793 58.1533
182.006836 91.871 54.2789
182.373047 91.893 50.3835
182.739258 91.866 46.5453
183.105469 91.799 42.8251
183.471680 91.702 39.2601
183.837891 91.587 35.8588
184.204102 91.463 32.6007
184.570312 91.335 29.4480
184.936523 91.206 26.3632
185.302734 91.072 23.3253
185.668945 90.932 20.3373
186.035156 90.787 17.4153
186.401367 90.641 14.5713
186.767578 90.499 11.7941
187.133789 90.364 9.0472
187.500000 90.237 6.2831
187.866211 90.111 3.4667
188.232422 89.979 0.5936
188.598633 89.835 -2.3082
188.964844 89.677 -5.1930
189.331055 89.507 -8.0173
189.697266 89.331 -10.7552
190.063477 89.153 -13.4032
190.429688 88.980 -15.9740
190.795898 88.813 -18.4880
191.162109 88.657 -20.9695
191.528320 88.512 -23.4464
191.894531 88.378 -25.9543
192.260742 88.253 -28.5327
192.626953 88.132 -31.2151
192.993164 88.007 -34.0160
193.359375 87.871 -36.9222
193.725586 87.718 -39.8966
194.091797 87.547 -42.8925
194.458008 87.360 -45.8737
194.824219 87.162 -48.8295
195.190430 86.957 -51.7778
195.556641 86.745 -54.7526
195.922852 86.520 -57.7811
196.289062 86.274 -60.8635
196.655273 85.997 -63.9636
197.021484 85.685 -67.0120
197.387695 85.336 -69.9207
197.753906 84.956 -72.6022
198.120117 84.556 -74.9885
198.486328 84.151 -77.0481
198.852539 83.757 -78.7957
199.218750 83.387 -80.2910
199.584961 83.046 -81.6202
199.951172 82.733 -82.8660
200.317383 82.442 -84.0791
200.683594 82.165 -85.2695
201.049805 81.898 -86.4180
201.416016 81.641 -87.5001
201.782227 81.396 -88.5062
202.148438 81.167 -89.4421
202.514648 80.956 -90.3196
202.880859 80.762 -91.1486
203.247070 80.588 -91.9423
203.613281 80.437 -92.7275
203.979492 80.306 -93.5460
204.345703 80.190 -94.4333
204.711914 80.080 -95.3909
205.078125 79.966 -96.3724
205.444336 79.847 -97.2994
205.810547 79.729 -98.0945
206.176758 79.622 -98.7126
206.542969 79.540 -99.1506
206.909180 79.492 -99.4342
207.275391 79.489 -99.6021
207.641602 79.539 -99.7043
208.007812 79.648 -99.8113
208.374023 79.823 -100.0209
208.740234 80.063 -100.4479
209.106445 80.360 -101.2025
209.472656 80.702 -102.3751
209.838867 81.075 -104.0300
210.205078 81.460 -106.2034
210.571289 81.840 -108.8967
210.937500 82.194 -112.0712
211.303711 82.509 -115.6489
211.669922 82.775 -119.5292
212.036133 82.990 -123.6108
212.402344 83.156 -127.8153
212.768555 83.277 -132.0955
213.134766 83.357 -136.4296
213.500977 83.394 -140.8000
213.867188 83.383 -145.1711
214.233398 83.322 -149.4764
214.599609 83.212 -153.6248
214.965820 83.060 -157.5211
215.332031 82.880 -161.0942
215.698242 82.687 -164.3145
216.064453 82.498 -167.1913
216.430664 82.322 -169.7524
216.796875 82.171 -172.0237
217.163086 82.056 -174.0323
217.529297 81.992 -175.8384
217.895508 81.993 -177.5663
218.261719 82.061 -179.3983
218.627930 82.185 178.4860
218.994141 82.337 175.9811
219.360352 82.492 173.0880
219.726562 82.628 169.8879
220.092773 82.738 166.4845
220.458984 82.822 162.9550
220.825195 82.882 159.3341
221.191406 82.915 155.6317
221.557617 82.917 151.8679
221.923828 82.879 148.0977
222.290039 82.798 144.4120
222.656250 82.676 140.9202
223.022461 82.523 137.7212
223.388672 82.356 134.8807
223.754883 82.193 132.4160
224.121094 82.052 130.2909
224.487305 81.948 128.4220
224.853516 81.886 126.6987
225.219727 81.863 125.0145
225.585938 81.869 123.3018
225.952148 81.891 121.5511
226.318359 81.919 119.8079
226.684570 81.953 118.1470
227.050781 81.998 116.6394
227.416992 82.067 115.3260
227.783203 82.174 114.2040
228.149414 82.336 113.2257
228.515625 82.565 112.3051
228.881836 82.868 111.3252
229.248047 83.248 110.1492
229.614258 83.700 108.6345
229.980469 84.214 106.6501
230.346680 84.770 104.0925
230.712891 85.349 100.8949
231.079102 85.926 97.0334
231.445312 86.479 92.5275
231.811523 86.986 87.4379
232.177734 87.429 81.8605
232.543945 87.797 75.9165
232.910156 88.083 69.7386
233.276367 88.287 63.4570
233.642578 88.415 57.1858
234.008789 88.477 51.0123
234.375000 88.483 44.9924
234.741211 88.445 39.1520
235.107422 88.373 33.4935
235.473633 88.273 28.0063
235.839844 88.151 22.6752
236.206055 88.010 17.4850
236.572266 87.852 12.4226
236.938477 87.679 7.4760
237.304688 87.494 2.6340
237.670898 87.296 -2.1132
238.037109 87.086 -6.7747
238.403320 86.866 -11.3579
238.769531 86.635 -15.8701
239.135742 86.394 -20.3174
239.501953 86.143 -24.7073
239.868164 85.886 -29.0525
240.234375 85.622 -33.3761
240.600586 85.351 -37.7170
240.966797 85.071 -42.1238
241.333008 84.772 -46.6399
241.699219 84.440 -51.2809
242.065430 84.061 -56.0167
242.431641 83.621 -60.7670
242.797852 83.113 -65.4125
243.164062 82.537 -69.8188
243.530273 81.901 -73.8618
243.896484 81.223 -77.4507
244.262695 80.520 -80.5417
244.628906 79.813 -83.1460
244.995117 79.118 -85.3298
245.361328 78.446 -87.2041
245.727539 77.795 -88.8965
246.093750 77.150 -90.5015
246.459961 76.492 -92.0254
246.826172 75.800 -93.3547
247.192383 75.072 -94.2803
247.558594 74.331 -94.5823
247.924805 73.630 -94.1772
248.291016 73.027 -93.2598
248.657227 72.556 -92.3188
249.023438 72.190 -91.9395
249.389648 71.850 -92.5149
249.755859 71.438 -94.0996
250.122070 70.861 -96.4507
250.488281 70.049 -99.1323
250.854492 68.948 -101.5962
251.220703 67.515 -103.1929
251.586914 65.705 -103.0999
251.953125 63.454 -100.0327
252.319336 60.704 -91.2979
252.685547 57.809 -70.6929
253.051758 57.083 -35.1210
253.417969 59.747 -7.2220
253.784180 62.935 4.9590
254.150391 65.589 9.1343
254.516602 67.712 9.6348
254.882812 69.425 8.3239
255.249023 70.825 6.0886
255.615234 71.985 3.3959
255.981445 72.960 0.5068
256.347656 73.791 -2.4242
256.713867 74.508 -5.3036
257.080078 75.138 -8.0730
257.446289 75.700 -10.6962
257.812500 76.215 -13.1548
258.178711 76.702 -15.4539
258.544922 77.176 -17.6357
258.911133 77.652 -19.7874
259.277344 78.133 -22.0243
259.643555 78.611 -24.4486
260.009766 79.071 -27.1035
260.375977 79.498 -29.9575
260.742188 79.883 -32.9250
261.108398 80.225 -35.9119
261.474609 80.533 -38.8529
261.840820 80.814 -41.7220
262.207031 81.073 -44.5126
262.573242 81.312 -47.2074
262.939453 81.538 -49.7701
263.305664 81.760 -52.1691
263.671875 81.995 -54.4176
264.038086 82.257 -56.5974
264.404297 82.551 -58.8396
264.770508 82.869 -61.2714
265.136719 83.196 -63.9673
265.502930 83.515 -66.9363
265.869141 83.813 -70.1418
266.235352 84.083 -73.5322
266.601562 84.321 -77.0601
266.967773 84.524 -80.6846
267.333984 84.689 -84.3657
267.700195 84.815 -88.0596
268.066406 84.901 -91.7153
268.432617 84.948 -95.2795
268.798828 84.960 -98.6968
269.165039 84.942 -101.9141
269.531250 84.900 -104.8845
269.897461 84.847 -107.5781
270.263672 84.793 -109.9866
270.629883 84.751 -112.1284
270.996094 84.729 -114.0405
271.362305 84.734 -115.7715
271.728516 84.773 -117.3740
272.094727 84.849 -118.9092
272.460938 84.964 -120.4443
272.827148 85.115 -122.0483
273.193359 85.298 -123.7778
273.559570 85.507 -125.6721
273.925781 85.736 -127.7568
274.291992 85.981 -130.0562
274.658203 86.235 -132.5967
275.024414 86.490 -135.4019
275.390625 86.737 -138.4756
275.756836 86.965 -141.7954
276.123047 87.167 -145.3157
276.489258 87.338 -148.9800
276.855469 87.477 -152.7363
277.221680 87.586 -156.5422
277.587891 87.667 -160.3667
277.954102 87.721 -164.1833
278.320312 87.751 -167.9697
278.686523 87.761 -171.7063
279.052734 87.753 -175.3809
279.418945 87.731 -178.9893
279.785156 87.700 177.4661
280.151367 87.661 173.9771
280.517578 87.617 170.5312
280.883789 87.569 167.1118
281.250000 87.517 163.7000
281.616211 87.462 160.2783
281.982422 87.400 156.8347
282.348633 87.329 153.3633
282.714844 87.248 149.8611
283.081055 87.156 146.3257
283.447266 87.050 142.7510
283.813477 86.926 139.1323
284.179688 86.782 135.4688
284.545898 86.611 131.7690
284.912109 86.409 128.0518
285.278320 86.169 124.3450
285.644531 85.887 120.6904
286.010742 85.556 117.1484
286.376953 85.172 113.8066
286.743164 84.735 110.7795
287.109375 84.249 108.2019
287.475586 83.729 106.2117
287.841797 83.198 104.9277
288.208008 82.687 104.4253
288.574219 82.234 104.7092
288.940430 81.880 105.6853
289.306641 81.663 107.1328
289.672852 81.604 108.7222
290.039062 81.698 110.0869
290.405273 81.917 110.9343
290.771484 82.220 111.1101
291.137695 82.570 110.5906
291.503906 82.940 109.4246
291.870117 83.311 107.6787
292.236328 83.670 105.4163
292.602539 84.005 102.7031
292.968750 84.307 99.6223
293.334961 84.570 96.2722
293.701172 84.796 92.7529
294.067383 84.993 89.1387
294.433594 85.172 85.4602
294.799805 85.344 81.6987
295.166016 85.513 77.8040
295.532227 85.680 73.7170
295.898438 85.838 69.3960
296.264648 85.979 64.8235
296.630859 86.097 60.0066
296.997070 86.184 54.9670
297.363281 86.237 49.7344
297.729492 86.253 44.3408
298.095703 86.230 38.8186
298.461914 86.168 33.2007
298.828125 86.068 27.5166
299.194336 85.930 21.7957
299.560547 85.759 16.0618
299.926758 85.557 10.3333
