* Measurement data measured by REW V5.31.3
* Source: EXCL: Microphone (Umik-1  Gain: 18dB  ), MICROPHONE (Master Volume), R, volume: 0,800. Timing signal peak level -37,1 dBFS, measurement signal peak level -9,2 dBFS
* Format: 256k Log Swept Sine, 1 sweep at -15,0 dBFS using an acoustic timing reference
* Dated: 30.des.2024 13:40:19
* REW Settings:
*  C-weighting compensation: Off
*  Target level: 75.0 dB
* Note: ; MLP - Sub 1.5 Delay -1,0009 ms (-343 mm, -(1 ft 1,52 in)) using IR start time relative to Acoustic reference played from SPEAKER R with no timing offset Clock adjustment: 5,4 ppm
* Measurement: MLP - Sub1.5
* Smoothing: None
* Frequency Step: 0.36621094 Hz
* Start Frequency: 1.0 Hz
*
* Freq(Hz) SPL(dB) Phase(degrees)
9.887695 72.851 59.8456
10.253906 73.354 40.4652
10.620117 73.260 23.0452
10.986328 72.774 8.0578
11.352539 71.896 -3.3986
11.718750 70.760 -9.3291
12.084961 69.895 -7.8237
12.451172 70.156 -1.4878
12.817383 71.543 2.5710
13.183594 73.263 2.2069
13.549805 74.947 -0.3251
13.916016 76.697 -3.5030
14.282227 78.671 -7.9435
14.648438 80.793 -15.0721
15.014648 82.824 -25.3571
15.380859 84.557 -38.1712
15.747070 85.884 -52.4738
16.113281 86.771 -67.2035
16.479492 87.235 -81.3435
16.845703 87.346 -93.9079
17.211914 87.253 -104.0696
17.578125 87.189 -111.6332
17.944336 87.383 -117.6361
18.310547 87.870 -123.9870
18.676758 88.464 -131.9898
19.042969 88.937 -141.6382
19.409180 89.150 -152.1207
19.775391 89.065 -162.4223
20.141602 88.728 -171.6367
20.507812 88.250 -179.1877
20.874023 87.769 174.9368
21.240234 87.379 170.1648
21.606445 87.073 165.8074
21.972656 86.779 161.6631
22.338867 86.458 158.1075
22.705078 86.169 155.5969
23.071289 86.037 153.9868
23.437500 86.129 152.3284
23.803711 86.365 149.6054
24.169922 86.580 145.5947
24.536133 86.654 140.8884
24.902344 86.570 136.3735
25.268555 86.414 132.6736
25.634766 86.314 129.7087
26.000977 86.337 126.6824
26.367188 86.413 122.7385
26.733398 86.394 117.6771
27.099609 86.149 112.0574
27.465820 85.626 106.8966
27.832031 84.878 103.3293
28.198242 84.072 102.1645
28.564453 83.446 103.2453
28.930664 83.154 105.2471
29.296875 83.145 106.7084
29.663086 83.271 107.1102
30.029297 83.439 106.6403
30.395508 83.627 105.4543
30.761719 83.814 103.4379
31.127930 83.936 100.5027
31.494141 83.909 96.9154
31.860352 83.688 93.3178
32.226562 83.304 90.4688
32.592773 82.867 88.8195
32.958984 82.509 88.0929
33.325195 82.275 87.3571
33.691406 82.067 85.8176
34.057617 81.721 83.5246
34.423828 81.123 81.3711
34.790039 80.280 80.6993
35.156250 79.366 82.6967
35.522461 78.695 87.3184
35.888672 78.483 92.5668
36.254883 78.588 96.1198
36.621094 78.680 97.4643
36.987305 78.526 97.6630
37.353516 78.058 98.2918
37.719727 77.355 100.8744
38.085938 76.636 106.4379
38.452148 76.200 114.8193
38.818359 76.252 124.4412
39.184570 76.763 133.4790
39.550781 77.584 140.9938
39.916992 78.575 146.7490
40.283203 79.624 150.8042
40.649414 80.637 153.5057
41.015625 81.568 155.4669
41.381836 82.443 157.3067
41.748047 83.346 159.2690
42.114258 84.357 161.0195
42.480469 85.472 161.9179
42.846680 86.609 161.5823
43.212891 87.672 160.1660
43.579102 88.611 158.1981
43.945312 89.441 156.2628
44.311523 90.232 154.7068
44.677734 91.073 153.4427
45.043945 92.013 151.9777
45.410156 93.033 149.7271
45.776367 94.058 146.3750
46.142578 95.010 141.9927
46.508789 95.833 136.9228
46.875000 96.516 131.6023
47.241211 97.085 126.4087
47.607422 97.592 121.5312
47.973633 98.097 116.8846
48.339844 98.632 112.1344
48.706055 99.186 106.8716
49.072266 99.708 100.8338
49.438477 100.133 94.0196
49.804688 100.406 86.6596
50.170898 100.495 79.1215
50.537109 100.398 71.8182
50.903320 100.137 65.1327
51.269531 99.756 59.3503
51.635742 99.312 54.5970
52.001953 98.860 50.8126
52.368164 98.436 47.7983
52.734375 98.052 45.3323
53.100586 97.701 43.2796
53.466797 97.377 41.6214
53.833008 97.084 40.4012
54.199219 96.840 39.6413
54.565430 96.670 39.2784
54.931641 96.599 39.1397
55.297852 96.634 38.9647
55.664062 96.764 38.4692
56.030273 96.957 37.4330
56.396484 97.168 35.7685
56.762695 97.356 33.5369
57.128906 97.490 30.9092
57.495117 97.558 28.1004
57.861328 97.564 25.3044
58.227539 97.523 22.6514
58.593750 97.453 20.1943
58.959961 97.367 17.9288
59.326172 97.274 15.8263
59.692383 97.179 13.8619
60.058594 97.086 12.0186
60.424805 96.999 10.2744
60.791016 96.924 8.5874
61.157227 96.861 6.8971
61.523438 96.804 5.1426
61.889648 96.746 3.2881
62.255859 96.673 1.3381
62.622070 96.577 -0.6631
62.988281 96.454 -2.6488
63.354492 96.304 -4.5525
63.720703 96.134 -6.3296
64.086914 95.948 -7.9665
64.453125 95.751 -9.4728
64.819336 95.541 -10.8580
65.185547 95.313 -12.1047
65.551758 95.063 -13.1531
65.917969 94.794 -13.9104
66.284180 94.517 -14.2811
66.650391 94.251 -14.2095
67.016602 94.021 -13.7103
67.382812 93.848 -12.8717
67.749023 93.742 -11.8253
68.115234 93.708 -10.7079
68.481445 93.743 -9.6398
68.847656 93.842 -8.7271
69.213867 93.993 -8.0683
69.580078 94.183 -7.7442
69.946289 94.392 -7.7944
70.312500 94.600 -8.1993
70.678711 94.792 -8.8856
71.044922 94.960 -9.7537
71.411133 95.105 -10.7112
71.777344 95.232 -11.6978
72.143555 95.348 -12.6895
72.509766 95.457 -13.6852
72.875977 95.561 -14.6887
73.242188 95.662 -15.6970
73.608398 95.760 -16.7029
73.974609 95.858 -17.7044
74.340820 95.958 -18.7111
74.707031 96.062 -19.7418
75.073242 96.168 -20.8159
75.439453 96.273 -21.9446
75.805664 96.375 -23.1272
76.171875 96.470 -24.3517
76.538086 96.555 -25.5971
76.904297 96.631 -26.8357
77.270508 96.698 -28.0383
77.636719 96.762 -29.1840
78.002930 96.827 -30.2704
78.369141 96.899 -31.3186
78.735352 96.977 -32.3638
79.101562 97.061 -33.4368
79.467773 97.143 -34.5439
79.833984 97.219 -35.6602
80.200195 97.288 -36.7388
80.566406 97.355 -37.7321
80.932617 97.426 -38.6136
81.298828 97.513 -39.3915
81.665039 97.624 -40.1061
82.031250 97.764 -40.8177
82.397461 97.932 -41.5890
82.763672 98.126 -42.4733
83.129883 98.342 -43.5121
83.496094 98.575 -44.7390
83.862305 98.819 -46.1820
84.228516 99.066 -47.8602
84.594727 99.308 -49.7754
84.960938 99.537 -51.9062
85.327148 99.746 -54.2118
85.693359 99.934 -56.6457
86.059570 100.103 -59.1735
86.425781 100.255 -61.7832
86.791992 100.391 -64.4810
87.158203 100.510 -67.2762
87.524414 100.609 -70.1678
87.890625 100.684 -73.1413
88.256836 100.732 -76.1786
88.623047 100.754 -79.2688
88.989258 100.743 -82.4056
89.355469 100.694 -85.5668
89.721680 100.596 -88.6868
90.087891 100.446 -91.6423
90.454102 100.247 -94.2692
90.820312 100.022 -96.4122
91.186523 99.806 -98.0001
91.552734 99.641 -99.1075
91.918945 99.555 -99.9584
92.285156 99.555 -100.8458
92.651367 99.621 -102.0157
93.017578 99.721 -103.5927
93.383789 99.827 -105.5807
93.750000 99.914 -107.9080
94.116211 99.970 -110.4707
94.482422 99.990 -113.1603
94.848633 99.976 -115.8781
95.214844 99.936 -118.5485
95.581055 99.881 -121.1364
95.947266 99.823 -123.6559
96.313477 99.769 -126.1636
96.679688 99.719 -128.7299
97.045898 99.665 -131.4037
97.412109 99.598 -134.1901
97.778320 99.510 -137.0530
98.144531 99.399 -139.9379
98.510742 99.268 -142.7997
98.876953 99.122 -145.6213
99.243164 98.966 -148.4139
99.609375 98.800 -151.2030
99.975586 98.624 -154.0090
100.341797 98.431 -156.8335
100.708008 98.220 -159.6579
101.074219 97.988 -162.4536
101.440430 97.736 -165.1943
101.806641 97.469 -167.8669
102.172852 97.186 -170.4722
102.539062 96.890 -173.0172
102.905273 96.576 -175.5023
103.271484 96.244 -177.9116
103.637695 95.892 179.7885
104.003906 95.520 177.6417
104.370117 95.134 175.6865
104.736328 94.741 173.9431
105.102539 94.349 172.4078
105.468750 93.965 171.0576
105.834961 93.591 169.8629
106.201172 93.229 168.7985
106.567383 92.879 167.8506
106.933594 92.542 167.0150
107.299805 92.218 166.2919
107.666016 91.912 165.6794
108.032227 91.627 165.1690
108.398438 91.369 164.7407
108.764648 91.142 164.3606
109.130859 90.952 163.9769
109.497070 90.798 163.5209
109.863281 90.681 162.9135
110.229492 90.591 162.0790
110.595703 90.516 160.9644
110.961914 90.443 159.5543
111.328125 90.357 157.8755
111.694336 90.248 155.9875
112.060547 90.112 153.9637
112.426758 89.949 151.8695
112.792969 89.765 149.7485
113.159180 89.562 147.6191
113.525391 89.346 145.4825
113.891602 89.118 143.3329
114.257812 88.878 141.1641
114.624023 88.625 138.9717
114.990234 88.359 136.7531
115.356445 88.075 134.5145
115.722656 87.770 132.2807
116.088867 87.440 130.1043
116.455078 87.087 128.0617
116.821289 86.720 126.2336
117.187500 86.353 124.6757
117.553711 86.008 123.3926
117.919922 85.703 122.3303
118.286133 85.453 121.3895
118.652344 85.266 120.4507
119.018555 85.144 119.3923
119.384766 85.087 118.0976
119.750977 85.087 116.4581
120.117188 85.134 114.3837
120.483398 85.215 111.8160
120.849609 85.316 108.7341
121.215820 85.426 105.1461
121.582031 85.536 101.0737
121.948242 85.641 96.5413
122.314453 85.733 91.5774
122.680664 85.808 86.2253
123.046875 85.859 80.5527
123.413086 85.885 74.6522
123.779297 85.890 68.6274
124.145508 85.883 62.5710
124.511719 85.880 56.5430
124.877930 85.892 50.5607
125.244141 85.931 44.6053
125.610352 86.001 38.6432
125.976562 86.098 32.6500
126.342773 86.219 26.6236
126.708984 86.355 20.5851
127.075195 86.503 14.5674
127.441406 86.658 8.6038
127.807617 86.818 2.7220
128.173828 86.978 -3.0554
128.540039 87.136 -8.7062
128.906250 87.288 -14.2043
129.272461 87.432 -19.5191
129.638672 87.567 -24.6188
130.004883 87.695 -29.4764
130.371094 87.822 -34.0786
130.737305 87.953 -38.4312
131.103516 88.093 -42.5629
131.469727 88.245 -46.5193
131.835938 88.409 -50.3525
132.202148 88.581 -54.1050
132.568359 88.757 -57.8010
132.934570 88.933 -61.4456
133.300781 89.108 -65.0356
133.666992 89.281 -68.5740
134.033203 89.455 -72.0789
134.399414 89.629 -75.5820
134.765625 89.800 -79.1170
135.131836 89.963 -82.7057
135.498047 90.111 -86.3511
135.864258 90.239 -90.0405
136.230469 90.344 -93.7546
136.596680 90.422 -97.4745
136.962891 90.473 -101.1823
137.329102 90.493 -104.8561
137.695312 90.481 -108.4639
138.061523 90.435 -111.9637
138.427734 90.359 -115.3115
138.793945 90.256 -118.4724
139.160156 90.134 -121.4287
139.526367 89.998 -124.1783
139.892578 89.851 -126.7261
140.258789 89.697 -129.0732
140.625000 89.538 -131.2161
140.991211 89.381 -133.1534
141.357422 89.229 -134.8979
141.723633 89.088 -136.4781
142.089844 88.960 -137.9272
142.456055 88.843 -139.2683
142.822266 88.736 -140.5056
143.188477 88.640 -141.6342
143.554688 88.562 -142.6589
143.920898 88.503 -143.6094
144.287109 88.468 -144.5354
144.653320 88.452 -145.4862
145.019531 88.449 -146.4866
145.385742 88.453 -147.5298
145.751953 88.461 -148.5902
146.118164 88.475 -149.6448
146.484375 88.498 -150.6887
146.850586 88.534 -151.7377
147.216797 88.583 -152.8182
147.583008 88.647 -153.9583
147.949219 88.722 -155.1837
148.315430 88.807 -156.5216
148.681641 88.899 -158.0012
149.047852 88.991 -159.6479
149.414062 89.075 -161.4712
149.780273 89.141 -163.4551
150.146484 89.182 -165.5562
150.512695 89.194 -167.7135
150.878906 89.178 -169.8643
151.245117 89.136 -171.9574
151.611328 89.076 -173.9608
151.977539 89.003 -175.8606
152.343750 88.924 -177.6558
152.709961 88.845 -179.3583
153.076172 88.770 179.0049
153.442383 88.704 177.3877
153.808594 88.646 175.7318
154.174805 88.590 173.9830
154.541016 88.526 172.1125
154.907227 88.444 170.1272
155.273438 88.333 168.0623
155.639648 88.188 165.9678
156.005859 88.003 163.8965
156.372070 87.773 161.9119
156.738281 87.493 160.1028
157.104492 87.162 158.5962
157.470703 86.787 157.5436
157.836914 86.385 157.0886
158.203125 85.981 157.3384
158.569336 85.603 158.3684
158.935547 85.288 160.2510
159.301758 85.093 163.0145
159.667969 85.102 166.4526
160.034180 85.388 169.8953
160.400391 85.941 172.3364
160.766602 86.650 172.9899
161.132812 87.364 171.6973
161.499023 87.958 168.8438
161.865234 88.368 165.0620
162.231445 88.583 161.0059
162.597656 88.634 157.2175
162.963867 88.581 154.0389
163.330078 88.494 151.5503
163.696289 88.430 149.5840
164.062500 88.413 147.8467
164.428711 88.437 146.0896
164.794922 88.483 144.1973
165.161133 88.539 142.1544
165.527344 88.599 139.9613
165.893555 88.661 137.5825
166.259766 88.716 134.9629
166.625977 88.748 132.0779
166.992188 88.741 128.9668
167.358398 88.682 125.7246
167.724609 88.568 122.4656
168.090820 88.402 119.2865
168.457031 88.191 116.2505
168.823242 87.943 113.3944
169.189453 87.662 110.7488
169.555664 87.352 108.3521
169.921875 87.019 106.2505
170.288086 86.675 104.4869
170.654297 86.331 103.0867
171.020508 86.003 102.0503
171.386719 85.707 101.3500
171.752930 85.458 100.9260
172.119141 85.272 100.6770
172.485352 85.158 100.4552
172.851562 85.118 100.0757
173.217773 85.143 99.3475
173.583984 85.209 98.1140
173.950195 85.285 96.2864
174.316406 85.339 93.8599
174.682617 85.338 90.9100
175.048828 85.258 87.5792
175.415039 85.083 84.0559
175.781250 84.807 80.5503
176.147461 84.438 77.2679
176.513672 83.993 74.3789
176.879883 83.495 71.9922
177.246094 82.971 70.1399
177.612305 82.443 68.7878
177.978516 81.926 67.8677
178.344727 81.426 67.3156
178.710938 80.948 67.0928
179.077148 80.497 67.1760
179.443359 80.081 67.5300
179.809570 79.709 68.0867
180.175781 79.383 68.7532
180.541992 79.098 69.4418
180.908203 78.843 70.1022
181.274414 78.607 70.7317
181.640625 78.385 71.3652
182.006836 78.173 72.0530
182.373047 77.975 72.8406
182.739258 77.799 73.7566
183.105469 77.652 74.8066
183.471680 77.547 75.9680
183.837891 77.492 77.1890
184.204102 77.494 78.3896
184.570312 77.556 79.4690
184.936523 77.675 80.3162
185.302734 77.842 80.8284
185.668945 78.042 80.9290
186.035156 78.257 80.5801
186.401367 78.469 79.7888
186.767578 78.661 78.6013
187.133789 78.823 77.0896
187.500000 78.949 75.3352
187.866211 79.037 73.4143
188.232422 79.091 71.3843
188.598633 79.113 69.2771
188.964844 79.106 67.1017
189.331055 79.071 64.8545
189.697266 79.003 62.5378
190.063477 78.896 60.1776
190.429688 78.746 57.8298
190.795898 78.552 55.5723
191.162109 78.317 53.4847
191.528320 78.051 51.6302
191.894531 77.763 50.0444
192.260742 77.465 48.7439
192.626953 77.166 47.7394
192.993164 76.878 47.0365
193.359375 76.616 46.6158
193.725586 76.397 46.4025
194.091797 76.229 46.2588
194.458008 76.111 46.0229
194.824219 76.024 45.5748
195.190430 75.948 44.8818
195.556641 75.863 43.9940
195.922852 75.762 42.9989
196.289062 75.644 41.9746
196.655273 75.513 40.9683
197.021484 75.373 40.0006
197.387695 75.227 39.0857
197.753906 75.078 38.2395
198.120117 74.930 37.4736
198.486328 74.787 36.7822
198.852539 74.655 36.1423
199.218750 74.535 35.5238
199.584961 74.426 34.9030
199.951172 74.329 34.2596
200.317383 74.241 33.5685
200.683594 74.161 32.7982
201.049805 74.082 31.9266
201.416016 73.994 30.9642
201.782227 73.893 29.9589
202.148438 73.777 28.9744
202.514648 73.653 28.0521
202.880859 73.528 27.1915
203.247070 73.404 26.3638
203.613281 73.278 25.5541
203.979492 73.144 24.7942
204.345703 73.003 24.1541
204.711914 72.866 23.6960
205.078125 72.750 23.4236
205.444336 72.669 23.2676
205.810547 72.627 23.1218
206.176758 72.620 22.8990
206.542969 72.639 22.5580
206.909180 72.679 22.0907
207.275391 72.737 21.4899
207.641602 72.812 20.7367
208.007812 72.899 19.8097
208.374023 72.993 18.7018
208.740234 73.092 17.4194
209.106445 73.192 15.9631
209.472656 73.294 14.3134
209.838867 73.392 12.4393
210.205078 73.474 10.3303
210.571289 73.531 8.0219
210.937500 73.552 5.5986
211.303711 73.541 3.1643
211.669922 73.506 0.7990
212.036133 73.464 -1.4783
212.402344 73.427 -3.7141
212.768555 73.400 -5.9940
213.134766 73.379 -8.3973
213.500977 73.353 -10.9628
213.867188 73.312 -13.6798
214.233398 73.247 -16.5043
214.599609 73.159 -19.3840
214.965820 73.048 -22.2786
215.332031 72.917 -25.1677
215.698242 72.768 -28.0453
216.064453 72.601 -30.9065
216.430664 72.415 -33.7335
216.796875 72.211 -36.4927
217.163086 71.991 -39.1456
217.529297 71.765 -41.6711
217.895508 71.539 -44.0828
218.261719 71.322 -46.4276
218.627930 71.112 -48.7644
218.994141 70.905 -51.1304
219.360352 70.693 -53.5227
219.726562 70.474 -55.9087
220.092773 70.252 -58.2593
220.458984 70.033 -60.5801
220.825195 69.822 -62.9192
221.191406 69.616 -65.3425
221.557617 69.405 -67.8904
221.923828 69.176 -70.5461
222.290039 68.920 -73.2345
222.656250 68.639 -75.8524
223.022461 68.343 -78.3167
223.388672 68.051 -80.6086
223.754883 67.780 -82.7920
224.121094 67.536 -84.9866
224.487305 67.314 -87.3064
224.853516 67.098 -89.7999
225.219727 66.878 -92.4375
225.585938 66.652 -95.1542
225.952148 66.431 -97.9240
226.318359 66.226 -100.8114
226.684570 66.040 -103.9575
227.050781 65.857 -107.4969
227.416992 65.650 -111.4728
227.783203 65.397 -115.8157
228.149414 65.091 -120.4052
228.515625 64.737 -125.1707
228.881836 64.348 -130.1610
229.248047 63.917 -135.5288
229.614258 63.415 -141.4197
229.980469 62.790 -147.8400
230.346680 61.989 -154.5861
230.712891 60.975 -161.2570
231.079102 59.744 -167.3267
231.445312 58.334 -172.2740
231.811523 56.826 -175.7791
232.177734 55.313 -177.9114
232.543945 53.847 -179.0850
232.910156 52.417 -179.6406
233.276367 51.000 -179.4486
233.642578 49.671 -178.1304
234.008789 48.629 -176.0576
234.375000 48.015 -175.1376
234.741211 47.711 -177.7529
235.107422 47.454 174.9031
235.473633 47.085 162.7694
235.839844 46.660 146.1982
236.206055 46.426 126.0544
236.572266 46.676 104.4036
236.938477 47.488 84.0909
237.304688 48.679 66.9401
237.670898 50.021 53.0981
238.037109 51.376 41.8558
238.403320 52.678 32.3896
238.769531 53.900 24.0339
239.135742 55.025 16.3285
239.501953 56.039 8.9967
239.868164 56.933 1.9175
240.234375 57.702 -4.9147
240.600586 58.354 -11.4491
240.966797 58.908 -17.6422
241.333008 59.384 -23.5070
241.699219 59.800 -29.1219
242.065430 60.157 -34.5840
242.431641 60.448 -39.9333
242.797852 60.660 -45.1008
243.164062 60.793 -49.9175
243.530273 60.867 -54.1919
243.896484 60.926 -57.8306
244.262695 61.018 -60.9393
244.628906 61.176 -63.8186
244.995117 61.394 -66.8195
245.361328 61.638 -70.1666
245.727539 61.867 -73.8849
246.093750 62.056 -77.8606
246.459961 62.196 -81.9501
246.826172 62.290 -86.0504
247.192383 62.341 -90.1033
247.558594 62.351 -94.0508
247.924805 62.325 -97.8022
248.291016 62.279 -101.2573
248.657227 62.242 -104.3871
249.023438 62.247 -107.3138
249.389648 62.309 -110.3029
249.755859 62.410 -113.6315
250.122070 62.512 -117.4341
250.488281 62.576 -121.6478
250.854492 62.583 -126.0891
251.220703 62.539 -130.5917
251.586914 62.465 -135.1222
251.953125 62.373 -139.8027
252.319336 62.250 -144.8171
252.685547 62.059 -150.2660
253.051758 61.755 -156.0718
253.417969 61.304 -161.9897
253.784180 60.696 -167.6970
254.150391 59.948 -172.9183
254.516602 59.088 -177.5405
254.882812 58.134 178.3530
255.249023 57.061 174.6084
255.615234 55.796 171.2719
255.981445 54.239 168.8853
256.347656 52.312 168.7472
256.713867 50.073 173.0913
257.080078 47.937 -175.5836
257.446289 46.727 -158.0792
257.812500 46.760 -140.1954
258.178711 47.552 -125.1185
258.544922 48.857 -112.5341
258.911133 50.645 -103.2639
259.277344 52.670 -98.4774
259.643555 54.619 -97.8234
260.009766 56.323 -100.0491
260.375977 57.751 -103.9818
260.742188 58.932 -108.8333
261.108398 59.915 -114.1691
261.474609 60.740 -119.7882
261.840820 61.433 -125.6018
262.207031 62.009 -131.5481
262.573242 62.480 -137.5592
262.939453 62.855 -143.5740
263.305664 63.145 -149.5559
263.671875 63.357 -155.4919
264.038086 63.492 -161.3643
264.404297 63.551 -167.1180
264.770508 63.538 -172.6591
265.136719 63.466 -177.8905
265.502930 63.362 177.2145
265.869141 63.250 172.5670
266.235352 63.139 167.9850
266.601562 63.014 163.2972
266.967773 62.849 158.4506
267.333984 62.615 153.5437
267.700195 62.305 148.7667
268.066406 61.929 144.2960
268.432617 61.511 140.2087
268.798828 61.068 136.4747
269.165039 60.605 133.0338
269.531250 60.119 129.8866
269.897461 59.613 127.1046
270.263672 59.103 124.7345
270.629883 58.611 122.6897
270.996094 58.135 120.7756
271.362305 57.638 118.8872
271.728516 57.072 117.2214
272.094727 56.424 116.2958
272.460938 55.754 116.6985
272.827148 55.197 118.6094
273.193359 54.881 121.4310
273.559570 54.825 124.1263
273.925781 54.937 126.0615
274.291992 55.130 127.2833
274.658203 55.384 128.0509
275.024414 55.723 128.3531
275.390625 56.146 127.8914
275.756836 56.606 126.4169
276.123047 57.039 123.9695
276.489258 57.408 120.8009
276.855469 57.709 117.1552
277.221680 57.951 113.1316
277.587891 58.132 108.7211
277.954102 58.230 103.9524
278.320312 58.220 99.0126
278.686523 58.097 94.2351
279.052734 57.892 89.9626
279.418945 57.667 86.3489
279.785156 57.487 83.2302
280.151367 57.377 80.2147
280.517578 57.314 76.9746
280.883789 57.254 73.4607
281.250000 57.181 69.8516
281.616211 57.112 66.3076
281.982422 57.088 62.7488
282.348633 57.124 58.8490
282.714844 57.190 54.2572
283.081055 57.225 48.8416
283.447266 57.173 42.7368
283.813477 57.005 36.2161
284.179688 56.720 29.5176
284.545898 56.331 22.7305
284.912109 55.838 15.7914
285.278320 55.211 8.5958
285.644531 54.387 1.1650
286.010742 53.285 -6.2039
286.376953 51.817 -12.8184
286.743164 49.923 -17.4097
287.109375 47.643 -17.8505
287.475586 45.348 -11.3718
287.841797 43.966 1.8928
288.208008 44.009 14.6901
288.574219 44.708 21.6799
288.940430 45.357 24.2322
289.306641 45.807 24.7466
289.672852 46.127 24.3899
290.039062 46.385 23.3442
290.405273 46.584 21.4718
290.771484 46.682 18.7944
291.137695 46.646 15.5636
291.503906 46.466 12.0597
291.870117 46.142 8.4501
292.236328 45.651 4.8380
292.602539 44.934 1.5093
292.968750 43.927 -0.7219
293.334961 42.634 -0.3032
293.701172 41.284 4.8055
294.067383 40.466 15.1129
294.433594 40.671 26.7915
294.799805 41.619 35.4410
295.166016 42.822 40.7571
295.532227 44.139 43.8652
295.898438 45.584 44.8994
296.264648 47.082 43.3855
296.630859 48.473 39.3241
296.997070 49.625 33.3757
297.363281 50.484 26.4719
297.729492 51.064 19.4797
298.095703 51.435 13.0204
298.461914 51.685 7.3594
298.828125 51.894 2.3988
299.194336 52.100 -2.1598
299.560547 52.297 -6.5455
299.926758 52.470 -10.7656
