* Measurement data measured by REW V5.31.3
* Source: EXCL: Microphone (Umik-1  Gain: 18dB  ), MICROPHONE (Master Volume), R, volume: 0,800. Timing signal peak level -38,0 dBFS, measurement signal peak level -4,7 dBFS
* Format: 256k Log Swept Sine, 1 sweep at -15,0 dBFS using an acoustic timing reference
* Dated: 30.des.2024 13:44:25
* REW Settings:
*  C-weighting compensation: Off
*  Target level: 75.0 dB
* Note: ; RLP - Sub 1S Delay 8,0021 ms (2,745 m, 9 ft 0,1 in) using IR start time relative to Acoustic reference played from SPEAKER R with no timing offset Clock adjustment: 5,0 ppm
* Measurement: RLP - Sub1S
* Smoothing: None
* Frequency Step: 0.36621094 Hz
* Start Frequency: 1.0 Hz
*
* Freq(Hz) SPL(dB) Phase(degrees)
9.887695 86.772 -15.9947
10.253906 86.863 -39.6237
10.620117 86.272 -60.8018
10.986328 85.235 -78.8363
11.352539 83.804 -92.5765
11.718750 82.159 -100.2757
12.084961 80.810 -100.4289
12.451172 80.553 -95.2908
12.817383 81.525 -91.5281
13.183594 83.038 -92.5054
13.549805 84.585 -97.1500
13.916016 86.034 -103.8657
14.282227 87.405 -111.8778
14.648438 88.720 -121.0976
15.014648 89.951 -131.6832
15.380859 91.027 -143.6676
15.747070 91.864 -156.8132
16.113281 92.395 -170.6446
16.479492 92.577 175.4843
16.845703 92.395 162.3637
17.211914 91.884 150.9266
17.578125 91.158 142.1526
17.944336 90.450 136.6121
18.310547 90.052 133.5652
18.676758 90.087 130.8062
19.042969 90.371 126.4118
19.409180 90.610 120.1453
19.775391 90.611 112.9886
20.141602 90.322 106.3301
20.507812 89.825 101.5468
20.874023 89.348 99.5238
21.240234 89.204 99.7372
21.606445 89.549 99.9869
21.972656 90.211 98.1906
22.338867 90.896 93.9688
22.705078 91.413 88.1478
23.071289 91.706 81.7996
23.437500 91.813 75.7726
23.803711 91.818 70.5176
24.169922 91.810 66.0420
24.536133 91.842 62.0382
24.902344 91.917 58.1620
25.268555 92.011 54.2451
25.634766 92.102 50.2876
26.000977 92.180 46.3344
26.367188 92.239 42.4151
26.733398 92.266 38.5970
27.099609 92.261 35.0408
27.465820 92.244 31.9331
27.832031 92.263 29.2973
28.198242 92.357 26.8644
28.564453 92.520 24.2159
28.930664 92.692 21.1333
29.296875 92.813 17.7975
29.663086 92.867 14.6543
30.029297 92.905 12.0634
30.395508 93.005 9.9656
30.761719 93.212 7.8617
31.127930 93.488 5.2167
31.494141 93.749 1.8945
31.860352 93.933 -1.8008
32.226562 94.029 -5.4027
32.592773 94.081 -8.5930
32.958984 94.143 -11.3654
33.325195 94.245 -13.9505
33.691406 94.381 -16.5789
34.057617 94.528 -19.3141
34.423828 94.674 -22.0963
34.790039 94.825 -24.8884
35.156250 94.982 -27.7443
35.522461 95.135 -30.7328
35.888672 95.264 -33.8197
36.254883 95.357 -36.8473
36.621094 95.425 -39.6384
36.987305 95.497 -42.1320
37.353516 95.596 -44.4199
37.719727 95.724 -46.6432
38.085938 95.869 -48.8521
38.452148 96.022 -50.9814
38.818359 96.198 -52.9629
39.184570 96.416 -54.8459
39.550781 96.686 -56.7937
39.916992 96.994 -58.9538
40.283203 97.321 -61.3555
40.649414 97.655 -63.9449
41.015625 98.001 -66.7005
41.381836 98.359 -69.6845
41.748047 98.714 -72.9651
42.114258 99.045 -76.4978
42.480469 99.341 -80.1132
42.846680 99.621 -83.6544
43.212891 99.918 -87.1572
43.579102 100.246 -90.8849
43.945312 100.573 -95.1200
44.311523 100.827 -99.8677
44.677734 100.950 -104.7297
45.043945 100.937 -109.0182
45.410156 100.866 -112.0701
45.776367 100.893 -113.7249
46.142578 101.159 -114.6866
46.508789 101.681 -116.1624
46.875000 102.349 -118.9496
47.241211 103.033 -123.0649
47.607422 103.670 -128.1211
47.973633 104.260 -133.8024
48.339844 104.818 -140.0680
48.706055 105.342 -147.0721
49.072266 105.793 -154.9426
49.438477 106.115 -163.6166
49.804688 106.260 -172.8230
50.170898 106.205 177.8399
50.537109 105.952 168.8057
50.903320 105.533 160.4520
51.269531 104.997 153.0255
51.635742 104.399 146.5958
52.001953 103.787 141.0712
52.368164 103.187 136.2859
52.734375 102.608 132.1049
53.100586 102.054 128.4632
53.466797 101.537 125.3258
53.833008 101.069 122.6259
54.199219 100.661 120.2543
54.565430 100.317 118.0983
54.931641 100.036 116.0686
55.297852 99.822 114.0737
55.664062 99.675 111.9784
56.030273 99.585 109.6169
56.396484 99.526 106.8678
56.762695 99.463 103.7258
57.128906 99.370 100.3068
57.495117 99.236 96.7896
57.861328 99.065 93.3402
58.227539 98.872 90.0612
58.593750 98.675 86.9818
58.959961 98.487 84.0801
59.326172 98.316 81.3111
59.692383 98.168 78.6226
60.058594 98.043 75.9608
60.424805 97.941 73.2792
60.791016 97.857 70.5526
61.157227 97.788 67.7829
61.523438 97.736 64.9798
61.889648 97.708 62.1253
62.255859 97.708 59.1500
62.622070 97.734 55.9517
62.988281 97.772 52.4529
63.354492 97.801 48.6549
63.720703 97.809 44.6414
64.086914 97.796 40.5251
64.453125 97.778 36.3646
64.819336 97.771 32.1044
65.185547 97.782 27.5868
65.551758 97.796 22.6392
65.917969 97.782 17.1782
66.284180 97.704 11.2589
66.650391 97.536 5.0516
67.016602 97.271 -1.2235
67.382812 96.916 -7.3672
67.749023 96.489 -13.2493
68.115234 96.010 -18.8243
68.481445 95.495 -24.1102
68.847656 94.950 -29.1462
69.213867 94.376 -33.9553
69.580078 93.770 -38.5278
69.946289 93.131 -42.8243
70.312500 92.462 -46.7853
70.678711 91.769 -50.3384
71.044922 91.067 -53.4158
71.411133 90.377 -55.9924
71.777344 89.726 -58.1328
72.143555 89.130 -60.0037
72.509766 88.587 -61.8102
72.875977 88.075 -63.6840
73.242188 87.567 -65.6116
73.608398 87.050 -67.4620
73.974609 86.533 -69.0946
74.340820 86.037 -70.4675
74.707031 85.582 -71.6689
75.073242 85.170 -72.8461
75.439453 84.786 -74.0950
75.805664 84.416 -75.4117
76.171875 84.051 -76.7316
76.538086 83.693 -77.9996
76.904297 83.346 -79.1996
77.270508 83.012 -80.3279
77.636719 82.689 -81.3575
78.002930 82.385 -82.2466
78.369141 82.110 -82.9904
78.735352 81.876 -83.6562
79.101562 81.679 -84.3442
79.467773 81.507 -85.0946
79.833984 81.345 -85.8329
80.200195 81.197 -86.4191
80.566406 81.089 -86.7718
80.932617 81.049 -86.9678
81.298828 81.090 -87.2138
81.665039 81.200 -87.7006
82.031250 81.356 -88.4777
82.397461 81.543 -89.4699
82.763672 81.771 -90.6071
83.129883 82.056 -91.9415
83.496094 82.404 -93.6479
83.862305 82.798 -95.9061
84.228516 83.204 -98.7780
84.594727 83.593 -102.1835
84.960938 83.953 -105.9714
85.327148 84.287 -110.0119
85.693359 84.604 -114.2520
86.059570 84.913 -118.7076
86.425781 85.210 -123.4149
86.791992 85.491 -128.3831
87.158203 85.747 -133.5830
87.524414 85.976 -138.9708
87.890625 86.177 -144.5168
88.256836 86.352 -150.2141
88.623047 86.494 -156.0580
88.989258 86.595 -162.0159
89.355469 86.648 -168.0090
89.721680 86.654 -173.9257
90.087891 86.620 -179.6575
90.454102 86.565 174.8577
90.820312 86.505 169.6116
91.186523 86.454 164.5375
91.552734 86.416 159.5513
91.918945 86.387 154.5913
92.285156 86.362 149.6333
92.651367 86.338 144.6724
93.017578 86.314 139.6992
93.383789 86.287 134.6925
93.750000 86.252 129.6354
94.116211 86.200 124.5408
94.482422 86.125 119.4614
94.848633 86.027 114.4722
95.214844 85.916 109.6317
95.581055 85.804 104.9458
95.947266 85.704 100.3547
96.313477 85.619 95.7568
96.679688 85.540 91.0547
97.045898 85.455 86.1953
97.412109 85.346 81.1827
97.778320 85.202 76.0649
98.144531 85.014 70.9102
98.510742 84.778 65.7897
98.876953 84.492 60.7722
99.243164 84.157 55.9297
99.609375 83.775 51.3391
99.975586 83.353 47.0797
100.341797 82.902 43.2177
100.708008 82.436 39.7867
101.074219 81.972 36.7782
101.440430 81.521 34.1477
101.806641 81.090 31.8392
102.172852 80.683 29.8068
102.539062 80.303 28.0168
102.905273 79.956 26.4293
103.271484 79.646 24.9800
103.637695 79.372 23.5837
104.003906 79.129 22.1658
104.370117 78.906 20.6892
104.736328 78.693 19.1581
105.102539 78.487 17.5894
105.468750 78.285 15.9810
105.834961 78.085 14.3085
106.201172 77.879 12.5496
106.567383 77.652 10.7214
106.933594 77.393 8.8948
107.299805 77.096 7.1830
107.666016 76.765 5.7120
108.032227 76.409 4.5984
108.398438 76.048 3.9319
108.764648 75.707 3.7618
109.130859 75.418 4.0624
109.497070 75.212 4.6919
109.863281 75.111 5.3846
110.229492 75.110 5.8153
110.595703 75.180 5.7129
110.961914 75.276 4.9476
111.328125 75.354 3.5402
111.694336 75.382 1.6150
112.060547 75.339 -0.6631
112.426758 75.222 -3.1431
112.792969 75.029 -5.7294
113.159180 74.764 -8.4037
113.525391 74.414 -11.2087
113.891602 73.950 -14.1864
114.257812 73.318 -17.2766
114.624023 72.447 -20.2092
114.990234 71.255 -22.3837
115.356445 69.669 -22.6827
115.722656 67.676 -19.1044
116.088867 65.518 -8.4022
116.455078 64.148 11.5831
116.821289 64.665 34.0211
117.187500 66.430 49.5951
117.553711 68.391 58.4329
117.919922 70.225 63.3124
118.286133 71.914 65.8042
118.652344 73.477 66.5859
119.018555 74.923 66.0046
119.384766 76.247 64.3265
119.750977 77.449 61.7942
120.117188 78.533 58.6179
120.483398 79.509 54.9581
120.849609 80.386 50.9211
121.215820 81.174 46.5659
121.582031 81.876 41.9244
121.948242 82.488 37.0283
122.314453 83.006 31.9326
122.680664 83.424 26.7281
123.046875 83.737 21.5387
123.413086 83.951 16.5043
123.779297 84.076 11.7571
124.145508 84.129 7.3978
124.511719 84.129 3.4792
124.877930 84.094 0.0079
125.244141 84.037 -3.0377
125.610352 83.966 -5.6759
125.976562 83.886 -7.8953
126.342773 83.804 -9.6466
126.708984 83.737 -10.8657
127.075195 83.713 -11.5209
127.441406 83.767 -11.6760
127.807617 83.933 -11.5320
128.173828 84.229 -11.4080
128.540039 84.643 -11.6511
128.906250 85.143 -12.5297
129.272461 85.685 -14.1689
129.638672 86.225 -16.5591
130.004883 86.731 -19.5956
130.371094 87.179 -23.1216
130.737305 87.558 -26.9604
131.103516 87.867 -30.9384
131.469727 88.118 -34.9091
131.835938 88.325 -38.7799
132.202148 88.510 -42.5336
132.568359 88.687 -46.2278
132.934570 88.863 -49.9645
133.300781 89.031 -53.8361
133.666992 89.177 -57.8801
134.033203 89.286 -62.0647
134.399414 89.351 -66.3093
134.765625 89.372 -70.5233
135.131836 89.355 -74.6415
135.498047 89.311 -78.6399
135.864258 89.246 -82.5311
136.230469 89.164 -86.3430
136.596680 89.066 -90.1019
136.962891 88.949 -93.8247
137.329102 88.812 -97.5222
137.695312 88.649 -101.1995
138.061523 88.457 -104.8530
138.427734 88.229 -108.4626
138.793945 87.960 -111.9893
139.160156 87.646 -115.3822
139.526367 87.287 -118.5886
139.892578 86.881 -121.5588
140.258789 86.427 -124.2356
140.625000 85.921 -126.5364
140.991211 85.363 -128.3381
141.357422 84.761 -129.4799
141.723633 84.131 -129.7847
142.089844 83.506 -129.0963
142.456055 82.930 -127.3195
142.822266 82.458 -124.4657
143.188477 82.152 -120.7034
143.554688 82.062 -116.3970
143.920898 82.212 -112.0720
144.287109 82.585 -108.2795
144.653320 83.131 -105.4318
145.019531 83.783 -103.7255
145.385742 84.483 -103.1698
145.751953 85.183 -103.6593
146.118164 85.852 -105.0353
146.484375 86.471 -107.1302
146.850586 87.030 -109.7958
147.216797 87.525 -112.9189
147.583008 87.955 -116.4198
147.949219 88.312 -120.2317
148.315430 88.590 -124.2759
148.681641 88.781 -128.4438
149.047852 88.884 -132.6028
149.414062 88.902 -136.6146
149.780273 88.843 -140.3610
150.146484 88.721 -143.7504
150.512695 88.543 -146.7013
150.878906 88.321 -149.1074
151.245117 88.072 -150.8224
151.611328 87.833 -151.7007
151.977539 87.659 -151.7134
152.343750 87.615 -151.0762
152.709961 87.735 -150.2554
153.076172 88.006 -149.7695
153.442383 88.375 -149.9381
153.808594 88.783 -150.7938
154.174805 89.194 -152.1892
154.541016 89.598 -153.9526
154.907227 90.003 -155.9928
155.273438 90.417 -158.3170
155.639648 90.840 -160.9916
156.005859 91.266 -164.0887
156.372070 91.682 -167.6550
156.738281 92.070 -171.7094
157.104492 92.414 -176.2465
157.470703 92.695 178.7667
157.836914 92.891 173.4059
158.203125 92.985 167.8014
158.569336 92.961 162.1387
158.935547 92.819 156.6420
159.301758 92.567 151.5454
159.667969 92.229 147.0507
160.034180 91.840 143.2864
160.400391 91.438 140.2769
160.766602 91.057 137.9453
161.132812 90.720 136.1510
161.499023 90.439 134.7411
161.865234 90.218 133.5808
162.231445 90.054 132.5555
162.597656 89.946 131.5602
162.963867 89.883 130.5054
163.330078 89.854 129.3363
163.696289 89.845 128.0474
164.062500 89.847 126.6716
164.428711 89.857 125.2549
164.794922 89.877 123.8298
165.161133 89.910 122.4064
165.527344 89.960 120.9788
165.893555 90.028 119.5349
166.259766 90.118 118.0585
166.625977 90.232 116.5205
166.992188 90.370 114.8755
167.358398 90.532 113.0695
167.724609 90.710 111.0588
168.090820 90.896 108.8232
168.457031 91.083 106.3662
168.823242 91.264 103.6987
169.189453 91.437 100.8273
169.555664 91.595 97.7505
169.921875 91.733 94.4751
170.288086 91.839 91.0310
170.654297 91.906 87.4824
171.020508 91.930 83.9209
171.386719 91.913 80.4509
171.752930 91.865 77.1693
172.119141 91.800 74.1477
172.485352 91.741 71.4116
172.851562 91.709 68.9186
173.217773 91.726 66.5424
173.583984 91.799 64.0852
173.950195 91.918 61.3350
174.316406 92.058 58.1420
174.682617 92.182 54.4781
175.048828 92.261 50.4390
175.415039 92.276 46.2020
175.781250 92.227 41.9613
176.147461 92.128 37.8695
176.513672 91.999 33.9990
176.879883 91.860 30.3387
177.246094 91.724 26.8218
177.612305 91.596 23.3679
177.978516 91.473 19.9148
178.344727 91.352 16.4253
178.710938 91.227 12.8793
179.077148 91.095 9.2664
179.443359 90.949 5.5854
179.809570 90.786 1.8503
180.175781 90.601 -1.9125
180.541992 90.395 -5.6711
180.908203 90.167 -9.4017
181.274414 89.919 -13.0936
181.640625 89.653 -16.7454
182.006836 89.365 -20.3523
182.373047 89.053 -23.8915
182.739258 88.715 -27.3168
183.105469 88.353 -30.5621
183.471680 87.976 -33.5598
183.837891 87.598 -36.2679
184.204102 87.239 -38.7018
184.570312 86.918 -40.9504
184.936523 86.642 -43.1625
185.302734 86.407 -45.4957
185.668945 86.198 -48.0619
186.035156 85.995 -50.8977
186.401367 85.785 -53.9822
186.767578 85.559 -57.2776
187.133789 85.314 -60.7665
187.500000 85.046 -64.4592
187.866211 84.746 -68.3733
188.232422 84.401 -72.4990
188.598633 83.996 -76.7823
188.964844 83.522 -81.1271
189.331055 82.975 -85.4174
189.697266 82.359 -89.5432
190.063477 81.684 -93.4214
190.429688 80.965 -97.0100
190.795898 80.217 -100.3210
191.162109 79.452 -103.4331
191.528320 78.677 -106.4928
191.894531 77.882 -109.6935
192.260742 77.038 -113.2260
192.626953 76.096 -117.2236
192.993164 74.992 -121.7300
193.359375 73.644 -126.6931
193.725586 71.947 -131.9686
194.091797 69.742 -137.2928
194.458008 66.749 -142.1493
194.824219 62.343 -145.1796
195.190430 54.391 -139.0782
195.556641 48.546 -22.8989
195.922852 58.061 1.9207
196.289062 62.003 5.7859
196.655273 64.438 9.1110
197.021484 66.456 12.8010
197.387695 68.424 15.6156
197.753906 70.354 16.4807
198.120117 72.149 15.2642
198.486328 73.740 12.4180
198.852539 75.114 8.4840
199.218750 76.288 3.8770
199.584961 77.287 -1.1401
199.951172 78.136 -6.4089
200.317383 78.853 -11.8258
200.683594 79.454 -17.3105
201.049805 79.950 -22.7979
201.416016 80.356 -28.2383
201.782227 80.681 -33.5991
202.148438 80.936 -38.8573
202.514648 81.128 -43.9946
202.880859 81.265 -48.9955
203.247070 81.355 -53.8550
203.613281 81.404 -58.5831
203.979492 81.414 -63.1993
204.345703 81.386 -67.7125
204.711914 81.315 -72.1018
205.078125 81.200 -76.3115
205.444336 81.048 -80.2716
205.810547 80.868 -83.9287
206.176758 80.675 -87.2725
206.542969 80.478 -90.3315
206.909180 80.285 -93.1445
207.275391 80.097 -95.7284
207.641602 79.918 -98.0731
208.007812 79.757 -100.1732
208.374023 79.627 -102.0645
208.740234 79.538 -103.8372
209.106445 79.488 -105.6044
209.472656 79.470 -107.4521
209.838867 79.468 -109.4045
210.205078 79.473 -111.4269
210.571289 79.481 -113.4524
210.937500 79.496 -115.4187
211.303711 79.530 -117.2976
211.669922 79.597 -119.1171
212.036133 79.706 -120.9640
212.402344 79.856 -122.9587
212.768555 80.037 -125.2009
213.134766 80.229 -127.7191
213.500977 80.416 -130.4553
213.867188 80.594 -133.2992
214.233398 80.770 -136.1487
214.599609 80.961 -138.9689
214.965820 81.186 -141.8124
215.332031 81.452 -144.7944
215.698242 81.756 -148.0371
216.064453 82.089 -151.6270
216.430664 82.435 -155.6010
216.796875 82.783 -159.9589
217.163086 83.123 -164.6785
217.529297 83.447 -169.7241
217.895508 83.752 -175.0531
218.261719 84.036 179.3765
218.627930 84.301 173.5924
218.994141 84.550 167.6000
219.360352 84.782 161.3826
219.726562 84.995 154.9169
220.092773 85.180 148.1921
220.458984 85.329 141.2242
220.825195 85.432 134.0579
221.191406 85.483 126.7599
221.557617 85.479 119.4091
221.923828 85.419 112.0894
222.290039 85.307 104.8833
222.656250 85.149 97.8676
223.022461 84.955 91.1022
223.388672 84.737 84.6194
223.754883 84.508 78.4160
224.121094 84.276 72.4607
224.487305 84.042 66.7161
224.853516 83.805 61.1686
225.219727 83.563 55.8435
225.585938 83.317 50.7958
225.952148 83.078 46.0786
226.318359 82.860 41.7052
226.684570 82.680 37.6294
227.050781 82.547 33.7561
227.416992 82.464 29.9778
227.783203 82.424 26.2067
228.149414 82.419 22.3895
228.515625 82.442 18.4996
228.881836 82.484 14.5262
229.248047 82.539 10.4689
229.614258 82.601 6.3398
229.980469 82.663 2.1635
230.346680 82.725 -2.0299
230.712891 82.785 -6.2137
231.079102 82.845 -10.3706
231.445312 82.905 -14.4895
231.811523 82.966 -18.5570
232.177734 83.028 -22.5537
232.543945 83.096 -26.4574
232.910156 83.176 -30.2576
233.276367 83.277 -33.9725
233.642578 83.409 -37.6595
234.008789 83.574 -41.4084
234.375000 83.769 -45.3196
234.741211 83.982 -49.4745
235.107422 84.200 -53.9126
235.473633 84.406 -58.6273
235.839844 84.591 -63.5782
236.206055 84.746 -68.7153
236.572266 84.870 -73.9976
236.938477 84.961 -79.4045
237.304688 85.015 -84.9253
237.670898 85.024 -90.5422
238.037109 84.980 -96.2114
238.403320 84.874 -101.8521
238.769531 84.705 -107.3542
239.135742 84.475 -112.5947
239.501953 84.196 -117.4607
239.868164 83.885 -121.8704
240.234375 83.563 -125.7852
240.600586 83.252 -129.2158
240.966797 82.972 -132.2202
241.333008 82.743 -134.9062
241.699219 82.573 -137.4243
242.065430 82.463 -139.9478
242.431641 82.402 -142.6343
242.797852 82.367 -145.5825
243.164062 82.335 -148.8093
243.530273 82.285 -152.2554
243.896484 82.204 -155.8164
244.262695 82.091 -159.3789
244.628906 81.950 -162.8477
244.995117 81.789 -166.1565
245.361328 81.620 -169.2720
245.727539 81.453 -172.1865
246.093750 81.300 -174.9177
246.459961 81.170 -177.5093
246.826172 81.069 179.9712
247.192383 80.997 177.4436
247.558594 80.950 174.8369
247.924805 80.918 172.1133
248.291016 80.892 169.2778
248.657227 80.866 166.3687
249.023438 80.841 163.4299
249.389648 80.823 160.4810
249.755859 80.820 157.4937
250.122070 80.834 154.3994
250.488281 80.860 151.1199
250.854492 80.884 147.6091
251.220703 80.891 143.8801
251.586914 80.869 140.0015
251.953125 80.813 136.0688
252.319336 80.726 132.1697
252.685547 80.615 128.3586
253.051758 80.490 124.6553
253.417969 80.356 121.0625
253.784180 80.215 117.5879
254.150391 80.072 114.2517
254.516602 79.935 111.0735
254.882812 79.815 108.0488
255.249023 79.722 105.1340
255.615234 79.664 102.2512
255.981445 79.639 99.3135
256.347656 79.642 96.2532
256.713867 79.663 93.0391
257.080078 79.694 89.6741
257.446289 79.729 86.1890
257.812500 79.766 82.6287
258.178711 79.806 79.0391
258.544922 79.858 75.4490
258.911133 79.930 71.8569
259.277344 80.031 68.2249
259.643555 80.164 64.4875
260.009766 80.329 60.5759
260.375977 80.520 56.4382
260.742188 80.729 52.0515
261.108398 80.949 47.4131
261.474609 81.179 42.5276
261.840820 81.414 37.3909
262.207031 81.652 31.9868
262.573242 81.887 26.2959
262.939453 82.111 20.3108
263.305664 82.313 14.0483
263.671875 82.484 7.5571
264.038086 82.617 0.9094
264.404297 82.713 -5.8135
264.770508 82.774 -12.5422
265.136719 82.808 -19.2341
265.502930 82.822 -25.8801
265.869141 82.821 -32.4949
266.235352 82.804 -39.1008
266.601562 82.769 -45.7090
266.967773 82.710 -52.3086
267.333984 82.623 -58.8662
267.700195 82.506 -65.3376
268.066406 82.358 -71.6760
268.432617 82.182 -77.8369
268.798828 81.980 -83.7795
269.165039 81.757 -89.4644
269.531250 81.518 -94.8555
269.897461 81.271 -99.9277
270.263672 81.027 -104.6765
270.629883 80.794 -109.1240
270.996094 80.580 -113.3176
271.362305 80.385 -117.3123
271.728516 80.208 -121.1499
272.094727 80.045 -124.8450
272.460938 79.894 -128.3892
272.827148 79.758 -131.7698
273.193359 79.641 -134.9939
273.559570 79.548 -138.0959
273.925781 79.478 -141.1250
274.291992 79.428 -144.1174
274.658203 79.393 -147.0762
275.024414 79.371 -149.9817
275.390625 79.367 -152.8262
275.756836 79.386 -155.6433
276.123047 79.429 -158.5073
276.489258 79.488 -161.4888
276.855469 79.548 -164.6042
277.221680 79.594 -167.7964
277.587891 79.624 -170.9636
277.954102 79.645 -174.0176
278.320312 79.673 -176.9329
278.686523 79.720 -179.7551
279.052734 79.790 177.4329
279.418945 79.882 174.5605
279.785156 79.989 171.5886
280.151367 80.107 168.4946
280.517578 80.233 165.2502
280.883789 80.361 161.8193
281.250000 80.479 158.1826
281.616211 80.578 154.3596
281.982422 80.649 150.4060
282.348633 80.692 146.3794
282.714844 80.712 142.3013
283.081055 80.711 138.1433
283.447266 80.683 133.8579
283.813477 80.614 129.4312
284.179688 80.485 124.9253
284.545898 80.287 120.4736
284.912109 80.022 116.2349
285.278320 79.704 112.3293
285.644531 79.353 108.7886
286.010742 78.984 105.5586
286.376953 78.593 102.5593
286.743164 78.167 99.7744
287.109375 77.686 97.3027
287.475586 77.143 95.3547
287.841797 76.547 94.1985
288.208008 75.928 94.1023
288.574219 75.338 95.2903
288.940430 74.853 97.8882
289.306641 74.577 101.7783
289.672852 74.615 106.3799
290.039062 75.011 110.6365
290.405273 75.695 113.4890
290.771484 76.523 114.4243
291.137695 77.360 113.5457
291.503906 78.125 111.2756
291.870117 78.786 108.0757
292.236328 79.342 104.3005
292.602539 79.807 100.1667
292.968750 80.192 95.7805
293.334961 80.505 91.1931
293.701172 80.745 86.4509
294.067383 80.910 81.6262
294.433594 80.998 76.8159
294.799805 81.013 72.1279
295.166016 80.965 67.6614
295.532227 80.867 63.4934
295.898438 80.734 59.6750
296.264648 80.581 56.2310
296.630859 80.426 53.1602
296.997070 80.285 50.4316
297.363281 80.173 47.9824
297.729492 80.101 45.7163
298.095703 80.075 43.5154
298.461914 80.094 41.2573
298.828125 80.147 38.8391
299.194336 80.222 36.1975
299.560547 80.303 33.3181
299.926758 80.378 30.2292
